
:
: example spectrum for DNA 5'-ACATTGCACAATCT-3'
: MS/MS  m/z ??? 17.5 eV
:
100.8017	1.714e1
100.9844	4.571e1
105.2762	1.410e1
106.4987	1.410e1
107.0341	1.115e3
107.0752	1.619e1
107.4807	1.452e1
107.8614	2.024e1
108.0274	7.695e1
109.0395	2.429e1
110.0332	1.676e3
110.7550	2.490e1
111.0352	1.391e2
111.5785	1.619e1
111.6347	1.519e1
112.6180	2.431e2
112.6901	1.179e2
112.7274	1.857e1
112.7558	2.667e1
113.0453	6.238e1
113.0853	6.900e1
113.1174	1.138e2
113.1497	6.595e1
113.1822	6.262e1
113.2148	1.091e2
113.2473	1.614e1
113.5233	1.405e1
113.6431	2.271e1
113.6661	2.014e1
113.6938	1.943e1
113.7386	5.429e1
113.7764	3.081e1
113.7984	2.767e1
117.0167	1.410e1
119.0369	1.643e1
120.3319	1.424e1
120.5819	1.714e1
121.9617	1.571e1
122.5339	1.762e1
122.8626	2.690e1
125.0326	8.851e3
126.0354	5.660e2
127.0119	1.314e1
127.0360	2.010e1
130.4789	1.424e1
132.0197	2.824e1
133.0129	2.305e2
133.9854	1.619e1
134.0437	6.997e4
134.2438	1.405e1
135.0460	4.095e3
136.0471	1.874e2
139.0117	1.905e1
139.0701	1.524e1
141.0826	1.533e1
141.9713	1.429e1
144.9731	4.686e1
145.4678	1.410e1
146.0425	1.410e1
149.0340	8.862e1
150.0394	1.552e3
150.9792	5.610e1
151.0332	1.592e2
151.9752	1.405e1
152.0302	1.410e1
152.0732	2.048e1
155.0685	1.519e1
156.7486	1.410e1
157.0502	1.410e1
158.3420	1.595e1
158.9242	2.449e2
159.0178	2.757e1
159.0438	2.776e1
160.0180	4.790e1
162.0607	1.667e1
162.2053	1.548e1
167.0313	1.410e1
168.1496	1.881e1
168.4285	1.410e1
172.4420	2.690e1
174.9467	1.629e1
175.0250	4.552e1
176.0627	1.557e1
176.0911	1.348e1
176.9270	1.041e2
176.9927	1.100e4
177.8943	1.548e1
177.9379	1.405e1
177.9967	6.711e2
178.9969	1.526e2
180.0696	2.929e1
183.7038	1.424e1
184.3488	1.752e1
184.9755	1.667e1
185.0128	1.714e1
187.1495	1.524e1
188.3137	1.424e1
189.0609	2.095e1
189.9991	1.897e2
190.4677	1.500e1
191.0010	1.410e1
192.0488	1.548e1
192.5066	4.610e1
195.0033	2.331e3
196.0070	1.487e2
199.4334	1.500e1
200.0015	5.095e1
200.1219	2.067e1
201.8941	1.405e1
203.9926	3.167e1
205.0152	1.410e1
208.2746	1.595e1
209.2475	1.524e1
209.5648	1.714e1
212.6255	1.690e1
213.0515	1.424e1
214.0129	5.145e2
214.0773	3.229e1
214.5929	1.500e1
215.0142	7.195e1
215.1590	2.929e1
216.0362	1.571e1
216.6573	1.595e1
217.0458	1.476e1
222.0543	1.405e1
223.1029	1.619e1
223.6326	1.619e1
224.6261	1.405e1
225.4975	1.405e1
227.0130	2.748e1
230.0042	1.610e2
230.0684	3.233e1
232.0774	1.571e1
232.5185	6.548e1
233.0709	1.857e1
235.0381	1.424e1
236.6164	2.095e1
236.8898	1.424e1
237.8524	2.262e1
238.9466	8.738e1
239.9509	1.424e1
240.0153	5.000e1
241.5228	8.362e1
244.1010	1.410e1
245.0291	2.617e2
245.7215	1.619e1
246.0425	1.505e1
246.3324	2.067e1
247.6083	1.629e1
249.0210	2.141e2
249.5158	4.900e1
249.7065	1.405e1
250.0190	3.010e1
251.0191	1.619e1
253.9562	1.952e1
254.1672	1.548e1
256.9591	6.672e2
257.0136	4.295e1
257.9733	1.571e1
258.5685	1.410e1
260.0307	5.552e1
262.4411	1.976e1
263.0161	1.929e1
265.9859	1.429e1
268.3443	1.500e1
268.7237	1.500e1
270.0239	1.524e1
272.0300	1.524e1
273.0927	1.429e1
274.0299	1.619e1
274.6297	1.405e1
274.9714	8.957e1
275.0339	2.995e2
275.7339	1.533e1
275.9689	1.405e1
276.0317	2.748e1
278.0417	5.433e1
279.0452	1.405e1
281.5056	5.938e1
282.5128	1.519e1
282.8007	1.405e1
283.0410	4.695e1
283.0945	1.405e1
286.5416	1.424e1
288.0371	1.197e4
288.1139	1.571e1
289.0394	1.315e3
290.0430	2.559e2
291.0276	2.790e1
291.0999	1.424e1
291.1618	1.976e1
291.6102	1.667e1
294.0369	1.052e2
295.0396	1.429e1
296.0421	2.500e1
297.1185	1.905e1
299.3531	1.410e1
299.5405	2.310e1
301.1857	1.848e1
301.4976	1.905e1
302.0960	1.629e1
303.0360	7.930e3
303.5153	1.405e1
304.0395	1.579e3
304.1804	1.429e1
304.3763	2.967e2
304.5416	9.405e3
304.6089	4.071e1
304.7072	3.033e1
304.8013	2.824e1
305.0431	2.109e3
305.3214	1.405e1
305.3884	4.781e1
305.5437	4.277e2
306.0465	4.089e2
307.0490	2.905e1
307.5502	2.067e1
308.0452	2.814e1
309.0528	7.519e1
309.3628	1.405e1
309.5645	3.543e1
310.0463	7.057e1
310.3812	1.643e1
310.4423	1.533e1
311.0077	1.505e1
311.6135	1.429e1
312.0492	1.081e4
312.5377	3.048e1
313.0493	1.372e3
313.1186	1.876e1
314.0517	1.940e2
315.0699	1.519e1
316.5361	1.690e1
317.0350	1.738e1
318.5884	1.524e1
319.5360	1.424e1
320.2867	1.929e1
321.0481	9.510e3
321.5134	2.132e2
322.0505	1.110e3
323.0544	1.444e2
323.5867	2.243e1
323.6281	1.905e1
323.6877	2.467e1
323.7398	2.024e1
324.0604	1.548e1
324.1075	1.548e1
324.2841	1.424e1
324.3828	2.024e1
327.5229	1.410e1
328.0428	1.721e3
329.0477	2.782e2
329.5410	2.952e1
330.0587	6.662e2
330.5336	1.629e1
331.0587	7.829e1
333.5135	3.886e1
333.7014	1.405e1
334.6031	1.833e1
334.7618	1.405e1
335.5280	3.243e1
336.5252	1.848e1
336.7000	1.724e1
336.9327	1.557e1
336.9883	5.176e1
337.0526	1.833e1
337.9770	1.652e1
338.0271	2.876e1
338.9883	1.629e1
340.0251	2.061e2
340.5330	3.033e1
341.1323	1.786e1
341.5066	1.405e1
342.5184	1.738e1
343.0220	4.757e1
343.1875	1.405e1
343.6563	1.619e1
344.0313	4.019e1
344.3580	3.524e1
344.5255	4.638e2
344.6974	2.143e1
344.9864	2.500e1
345.0284	8.400e1
345.1917	1.952e1
345.5263	1.929e1
346.0516	9.881e1
347.0705	1.476e1
347.5237	6.890e1
347.6367	2.743e1
348.5290	3.381e1
348.6871	1.410e1
349.0338	3.646e2
349.5500	1.503e2
351.0002	1.833e1
352.0288	1.429e1
353.1035	1.524e1
354.0704	1.595e1
354.6812	1.533e1
354.9994	2.054e2
355.2241	1.452e1
355.3933	3.048e1
355.5327	3.219e1
355.8242	1.424e1
356.0234	2.852e1
356.0745	2.071e1
356.5301	1.990e2
357.0161	2.333e1
357.0571	1.210e2
357.5736	3.395e1
358.0530	1.424e1
358.2755	1.643e1
358.6385	2.943e1
359.1854	1.424e1
360.0447	1.452e1
360.7037	1.595e1
362.0375	1.410e1
363.0465	3.471e1
363.3710	1.006e2
363.7032	3.681e1
364.0421	6.590e1
364.5296	2.079e2
364.9193	1.519e1
365.0311	3.324e1
365.7092	1.117e2
365.9226	2.214e1
366.0434	8.110e1
366.3781	1.346e2
366.7137	4.929e1
368.0018	7.266e2
368.0646	2.482e2
369.0067	6.719e1
370.0921	1.405e1
370.6182	1.410e1
370.7022	6.210e1
371.1499	1.405e1
371.3841	9.881e1
371.7094	1.862e1
372.0333	1.762e1
372.1637	1.533e1
373.0175	1.410e1
373.3359	1.524e1
374.0198	1.643e1
375.5359	1.619e1
375.7483	1.405e1
376.0748	1.476e1
376.8888	1.571e1
377.0363	1.405e1
380.5337	6.305e1
380.8952	1.429e1
381.1841	1.643e1
381.4762	1.410e1
383.0014	5.609e2
383.7253	2.548e1
383.9902	2.224e1
384.0159	9.238e0
384.3104	5.171e1
384.5477	5.319e1
385.0026	1.867e1
385.0530	2.200e1
385.5370	1.424e1
386.0122	5.884e2
386.0744	1.038e3
387.0190	1.005e2
387.0704	1.581e2
387.5417	1.667e1
388.0148	1.605e1
388.0469	6.843e1
389.0443	2.968e3
389.1067	5.210e1
389.1349	2.443e1
389.4660	3.167e1
389.5445	8.497e2
389.9965	5.024e1
390.0473	2.708e2
390.5476	3.952e1
391.0509	1.410e1
392.0267	6.369e2
392.0777	1.692e2
392.5416	4.705e1
392.7767	1.500e1
393.0200	9.410e1
393.0918	1.429e1
393.1369	1.367e1
393.5438	3.685e3
394.0454	8.648e2
394.5445	3.451e2
394.8014	1.519e1
394.9455	1.881e1
395.0498	4.881e1
395.1702	3.386e1
395.3640	1.405e1
396.0273	3.405e1
396.3105	2.962e1
396.3590	1.633e1
396.5419	3.133e2
397.0460	2.122e2
397.1178	1.714e1
397.5431	7.638e1
397.6140	1.429e1
398.0476	1.323e2
398.5434	1.548e1
399.0408	2.095e1
401.0307	1.478e3
401.5479	1.566e2
402.0187	4.143e1
402.0846	2.048e1
403.0125	4.219e1
403.0504	1.238e1
403.6556	1.405e1
403.7302	1.971e1
404.0331	1.110e1
404.0850	9.462e1
404.5424	6.378e2
405.0453	1.846e2
405.5665	2.705e1
406.0500	1.424e1
406.4094	2.724e1
406.7278	1.548e1
407.4682	1.429e1
407.5799	1.921e2
407.7426	2.176e1
408.0154	7.881e1
408.0907	1.090e2
408.3915	1.060e4
408.5741	1.367e1
408.6273	1.386e1
408.7261	5.073e3
409.0612	1.976e3
409.3970	3.260e2
409.7310	8.790e1
410.0290	3.955e2
410.0864	1.582e3
410.5338	2.176e1
411.0261	8.348e1
411.0858	1.939e2
411.3949	1.285e2
411.7284	8.138e1
412.0396	1.367e1
412.0866	1.414e1
413.0358	2.271e1
413.5468	1.476e1
413.7214	1.571e1
413.8705	1.410e1
414.0632	2.724e1
414.7065	3.976e1
415.1133	1.424e1
416.5871	4.471e1
416.6404	1.533e1
416.7232	1.714e1
417.0667	5.019e1
417.2929	1.857e1
417.4098	3.410e1
417.5819	1.643e1
418.4839	1.424e1
419.0917	1.424e1
419.1941	1.548e1
419.3759	2.048e1
419.9277	1.667e1
421.0957	1.571e1
422.0647	1.643e1
423.0496	5.810e1
423.1165	2.262e1
423.8031	2.452e1
424.5561	8.795e1
424.7101	2.429e1
425.0462	3.405e1
425.7167	1.452e1
426.0196	1.178e2
426.0803	2.587e2
427.0048	1.643e1
427.0783	1.429e1
427.3118	1.738e1
428.1030	1.690e1
428.5097	1.067e1
428.5495	3.524e1
429.0636	8.238e1
429.8236	1.410e1
430.0241	3.448e1
430.0902	1.476e1
430.2708	1.452e1
430.7183	6.300e1
431.3741	1.619e1
432.0188	1.890e1
432.0612	2.457e1
432.3115	1.548e1
432.3820	1.410e1
432.5103	1.629e1
433.0569	1.533e1
433.5151	1.329e1
433.5530	3.929e1
434.0560	2.286e1
434.3558	1.519e1
434.5747	1.629e1
435.0641	1.099e3
435.5628	3.511e2
435.6092	3.357e1
435.7296	1.405e1
435.9903	2.048e1
436.0663	1.121e2
436.5240	1.271e1
436.5697	3.062e1
437.0331	1.619e1
437.6373	1.629e1
438.0575	3.159e2
438.4047	5.276e1
438.5647	6.357e1
438.6044	9.571e0
438.7233	3.548e1
439.6086	1.519e1
440.2565	1.424e1
440.3789	9.510e1
440.6140	1.424e1
440.7180	1.050e2
441.0452	3.767e1
441.0868	1.338e1
441.7349	1.848e1
442.5713	3.481e1
442.6120	1.300e1
442.9138	3.333e1
443.0670	5.400e1
443.3932	7.548e1
443.7124	3.643e1
444.0552	1.976e1
444.4488	1.524e1
444.5202	4.510e1
444.5714	7.157e1
444.6938	1.452e1
445.0065	2.810e1
445.7267	2.395e1
447.0764	5.071e1
447.5627	9.348e1
448.0307	3.621e2
448.7178	2.048e1
448.8979	1.410e1
449.0290	5.757e1
449.3699	1.410e1
449.4406	1.452e1
450.1820	1.643e1
451.0326	1.500e1
451.5627	3.071e1
452.0698	1.118e2
452.5807	4.581e1
453.5903	1.643e1
454.2933	1.524e1
454.5323	3.367e1
455.1986	1.714e1
455.5657	5.352e1
456.0687	4.748e1
456.2595	3.786e1
456.4225	1.643e1
456.5662	5.810e4
456.6831	2.495e1
456.8190	1.956e3
456.8946	1.071e1
457.0677	1.929e4
457.1609	5.671e1
457.2424	1.929e1
457.3212	2.932e2
457.4686	1.786e1
457.5669	5.707e3
457.6916	1.424e1
457.7571	1.581e1
457.8138	2.205e1
458.0692	1.149e3
458.1734	1.905e1
458.5676	2.818e2
459.0874	1.714e1
459.4689	2.738e1
459.5775	7.429e1
459.7368	1.033e2
460.0632	1.769e2
460.3764	1.643e1
460.5617	8.238e1
460.8210	2.881e1
461.0670	2.303e2
461.4650	3.133e1
461.5665	5.090e1
461.7189	2.077e2
462.0585	9.867e1
462.3966	8.181e1
463.0282	1.225e2
463.2412	1.667e1
464.0730	1.267e2
464.5753	5.029e1
464.7288	3.252e1
464.8266	1.548e1
465.0664	9.629e1
465.3930	1.410e1
465.5808	1.946e2
465.7209	2.238e1
466.0426	1.259e4
466.0980	3.490e1
466.5657	4.982e2
466.6168	2.895e1
466.8243	3.425e2
467.0522	3.293e3
467.3039	1.198e2
467.3899	7.115e2
467.5684	1.062e2
467.7264	1.344e3
467.8141	7.476e1
468.0575	8.325e2
468.3936	4.550e2
468.5672	3.033e1
468.7344	5.410e1
469.0637	1.729e2
469.2271	1.619e1
469.4826	1.619e1
469.5587	2.814e1
469.7339	2.524e1
469.8922	1.548e1
470.0602	3.547e2
470.2874	1.619e1
470.3982	1.030e2
470.4556	3.471e1
470.7291	2.950e2
470.8369	2.381e1
471.0719	1.429e2
471.3875	2.929e1
471.7175	1.505e1
471.9609	1.524e1
472.0418	3.091e2
472.8032	6.719e1
473.0639	1.382e2
473.1400	1.367e1
473.2085	1.410e1
473.3120	2.262e1
473.5557	1.159e2
473.7265	1.619e1
474.0422	1.060e2
474.4124	1.505e1
475.0623	1.328e2
475.2133	1.405e1
475.5629	2.067e1
475.7304	1.406e2
476.0500	9.071e1
476.5663	7.133e1
476.7515	1.529e1
476.8077	1.367e1
477.0710	7.105e1
478.0454	2.738e2
478.1299	5.690e1
478.5492	8.152e1
478.8048	1.943e1
478.9897	1.400e1
479.0452	3.595e1
479.1259	2.976e1
479.3181	1.524e1
479.6814	1.643e1
480.0901	7.324e1
480.2581	1.548e1
480.4146	2.052e1
480.5570	1.409e2
480.6177	1.233e1
480.8156	2.234e2
480.9590	1.871e1
481.0422	2.627e3
482.0456	3.295e2
482.2892	1.571e1
482.5496	6.905e1
482.6183	3.238e1
483.0508	1.208e2
483.8322	1.881e1
484.0580	1.149e3
484.3050	1.476e1
484.5551	9.667e1
485.0503	1.877e2
485.1148	2.424e1
485.4739	2.966e2
485.5829	2.143e1
485.6688	2.412e2
485.8688	1.019e2
486.0803	3.447e2
486.2763	2.595e1
486.4196	1.581e2
486.5738	2.534e2
486.7560	5.362e1
486.8238	2.126e2
486.8618	6.033e1
487.0792	9.000e1
487.1755	1.424e1
487.3193	6.443e1
487.5497	1.643e1
487.9107	1.629e1
488.0382	1.057e2
488.4875	1.186e1
488.5341	2.157e1
489.0283	1.424e1
489.3891	1.113e2
490.0545	5.223e3
490.1671	2.000e1
490.5413	1.643e1
491.0537	8.970e2
491.3834	4.624e1
491.8305	1.833e1
492.0600	2.350e2
492.3899	2.095e1
492.5410	2.719e1
492.7083	1.857e1
493.0545	1.429e1
493.4796	6.086e1
493.5545	2.941e2
493.6706	5.048e1
493.8781	2.333e1
494.0666	9.319e1
494.3904	1.110e2
494.4851	2.595e1
494.5840	2.214e1
494.6682	4.500e1
494.7394	2.214e1
495.0960	6.886e1
495.2525	2.000e1
495.4087	2.024e1
495.7331	1.929e1
496.0743	1.424e1
496.1499	1.738e1
496.4300	1.519e1
496.5498	6.970e2
496.6246	2.062e1
496.7099	1.952e1
497.0508	1.931e2
497.3846	2.429e1
497.5638	6.490e1
497.7495	2.929e1
498.0623	3.286e1
498.4143	6.348e1
498.5628	1.714e1
498.7463	1.274e2
499.0506	1.443e2
499.5140	3.224e1
499.5623	5.005e1
499.6173	1.676e1
499.7252	3.457e1
500.0550	2.937e2
500.3190	1.810e1
500.3845	1.414e1
500.5705	6.922e2
500.8195	6.366e2
501.0664	2.315e3
501.1729	1.810e1
501.2195	6.157e1
501.3180	1.399e3
501.5694	7.584e2
501.7610	2.957e1
501.8232	2.025e2
502.0637	1.027e2
502.3109	2.286e1
502.4645	1.629e1
502.5504	1.571e1
502.7316	1.890e1
502.8091	1.123e2
503.0655	1.294e2
503.1346	1.476e1
503.3230	2.407e2
503.5671	7.571e1
503.8175	1.410e1
504.0623	8.819e1
504.5496	7.895e1
505.0208	1.090e1
505.0623	2.567e1
505.3129	3.024e1
505.3880	1.519e1
505.5314	3.248e1
505.5873	1.498e3
505.8634	2.214e1
505.9495	1.881e1
506.0579	8.196e2
506.0896	8.449e2
506.1817	1.405e1
506.5934	2.192e2
506.7417	1.652e2
506.8222	3.671e1
507.0699	3.595e2
507.3209	2.003e2
507.4198	4.100e1
507.5612	1.285e2
507.7390	2.429e1
507.8374	1.976e1
508.0623	8.657e1
508.3977	1.848e1
508.5799	4.329e1
509.0518	1.038e2
509.1813	1.405e1
509.4805	1.619e1
509.5739	1.768e2
509.6545	1.890e1
509.6964	1.914e1
509.7534	4.448e1
509.8959	2.307e2
510.0781	3.686e2
510.2463	1.554e2
510.3055	2.424e1
510.4019	9.719e1
510.5900	8.105e1
510.8582	9.333e0
510.9134	6.514e1
511.0605	2.895e1
511.0852	2.929e1
511.1733	1.500e1
511.5692	2.386e1
511.6301	1.543e1
512.0731	2.171e1
512.1251	2.280e2
512.4001	4.619e1
512.6475	2.371e1
512.7459	1.108e4
512.8755	5.748e1
513.0804	6.909e3
513.1868	2.219e1
513.2719	2.381e1
513.4151	2.637e3
513.5102	5.471e1
513.5764	3.152e2
513.7477	8.653e2
514.0782	3.067e2
514.3414	4.119e1
514.4204	5.276e1
514.5490	2.271e1
514.8294	1.971e1
515.4518	1.619e1
515.5878	1.405e1
515.7314	2.957e1
515.8391	1.414e1
515.8984	4.762e1
516.0756	8.290e1
516.4019	3.352e1
516.5594	6.380e2
516.7574	1.833e1
516.8633	4.614e1
517.0493	4.871e1
517.0964	1.124e1
517.5684	4.510e1
518.0728	2.470e2
518.4107	1.153e2
518.5455	1.405e1
518.7565	1.074e2
518.8453	3.605e1
519.0583	1.356e2
519.3896	3.348e1
519.9012	8.424e1
520.0285	1.405e1
520.1269	1.410e1
520.2949	1.848e1
520.4307	1.833e1
520.5492	1.976e1
520.6835	1.848e1
520.8795	4.267e1
521.0704	7.552e1
521.1325	1.706e2
521.2724	1.352e1
521.3176	2.238e1
521.3885	2.508e2
521.4789	6.781e1
521.7217	7.262e1
522.0649	2.548e2
522.1331	5.862e1
522.3991	1.875e2
522.5514	1.410e1
522.7335	5.952e1
523.0719	3.376e1
523.1706	1.410e1
523.5648	1.952e1
523.9954	1.657e1
524.0630	9.081e1
524.1842	1.500e1
524.2740	1.409e2
524.3235	7.757e1
524.3870	4.957e1
524.4750	2.086e2
524.5758	1.040e2
524.6750	1.795e2
524.8645	4.157e1
525.0719	3.900e2
525.2213	1.881e1
525.2828	1.586e1
525.3304	2.471e2
525.4699	3.810e1
525.5736	2.090e2
525.8293	7.729e1
525.8801	6.400e1
525.9529	2.757e1
526.0767	2.286e1
526.3190	3.590e1
526.3881	2.015e2
526.7192	1.361e2
526.8202	3.162e1
527.0591	1.279e2
527.3147	1.410e1
527.3915	5.824e1
527.4454	4.776e1
527.5565	2.910e1
527.6235	1.395e1
527.8036	4.981e1
527.8633	1.743e1
528.4066	2.095e1
528.5753	1.533e1
528.7635	1.976e1
529.0696	9.071e1
529.3912	6.538e1
529.5466	1.643e1
529.6807	1.995e1
529.7368	2.505e1
530.1307	2.736e2
530.5669	1.643e1
530.7570	1.762e1
530.8708	1.952e1
531.0814	2.048e1
531.1442	9.814e1
531.2860	1.110e1
531.3290	4.210e1
531.7583	5.324e1
531.8398	1.548e1
532.0797	2.310e1
532.3881	3.810e1
532.5504	3.176e1
532.7662	2.000e1
532.8740	3.286e1
533.0089	1.510e1
533.0667	2.405e1
533.4583	1.424e1
533.5721	2.145e3
533.7552	4.314e1
533.8987	1.500e1
534.0697	9.152e2
534.3351	4.314e1
534.4009	3.963e2
534.4966	1.448e1
534.5747	1.972e2
534.6559	1.400e1
534.7338	1.907e2
534.8330	8.850e3
534.9908	1.881e1
535.0840	7.841e3
535.2091	5.024e1
535.3341	3.445e3
535.3913	1.106e2
535.5835	1.496e3
535.6366	4.243e1
535.7206	1.786e1
535.8343	5.105e2
536.0912	1.378e2
536.1437	3.300e1
536.2755	1.424e1
536.3500	3.700e1
536.4260	3.795e1
536.5641	1.949e2
536.6763	1.800e1
536.7284	3.919e1
536.9448	2.300e1
537.0666	1.862e1
537.1353	4.305e1
537.2841	2.167e1
537.4199	2.095e2
537.5397	2.500e1
537.5866	1.605e1
537.7579	1.330e2
537.8559	1.571e1
537.9907	2.571e1
538.0745	3.253e2
538.2456	4.763e2
538.3293	2.000e1
538.4057	2.461e2
538.5795	2.646e2
538.6720	2.714e1
538.7429	3.505e2
538.8241	1.795e2
538.9218	3.905e1
539.0852	3.398e2
539.1429	1.257e2
539.3312	1.312e2
539.4220	6.068e2
539.5712	1.991e2
539.7545	8.328e2
540.0198	1.171e1
540.0706	3.080e2
540.1517	2.700e1
540.3146	4.619e1
540.4190	8.829e1
540.4799	1.096e2
540.5718	4.438e1
540.6847	6.638e1
540.7688	4.133e1
541.0707	1.364e3
541.1470	1.914e1
541.2742	5.024e1
541.3354	5.605e1
541.5719	5.103e2
541.9246	3.476e1
542.0707	1.701e2
542.2385	1.321e2
542.4079	1.609e2
542.5748	1.738e2
542.7532	3.156e2
543.0834	1.780e2
543.2303	2.690e1
543.4138	2.967e1
544.1033	1.881e1
544.4008	3.810e1
544.5461	4.595e1
544.7326	6.994e2
544.8596	3.338e1
544.9631	3.405e1
545.0704	6.284e2
545.2311	4.457e1
545.3139	3.199e2
545.4103	3.899e2
545.4738	7.857e0
545.5742	7.645e3
545.7481	1.664e2
546.0076	1.528e2
546.0759	3.279e3
546.3493	2.095e1
546.4185	2.952e1
546.5778	1.050e3
547.0168	2.000e1
547.0781	3.624e2
547.2155	2.548e1
547.3260	6.224e1
547.5676	8.738e1
547.8186	2.371e1
547.8756	7.348e1
548.0086	1.405e1
548.0939	4.295e1
548.2958	5.329e1
548.5690	1.662e3
548.7201	1.857e1
548.9328	1.424e1
549.0671	3.993e3
549.4110	1.519e1
549.5716	1.597e3
549.6767	1.295e1
549.7442	8.386e1
549.8273	1.948e1
550.0737	4.384e3
550.1968	1.510e1
550.2378	1.510e1
550.3967	5.771e1
550.5040	6.305e1
550.5773	2.133e3
550.6412	3.567e1
550.7371	2.886e1
550.7701	2.948e1
550.8990	4.295e1
550.9697	1.871e1
551.0784	7.328e2
551.1958	2.238e1
551.2833	1.724e3
551.4871	2.124e3
551.5845	1.700e2
551.6866	1.103e3
551.8887	6.245e2
552.0144	5.200e1
552.0873	3.400e2
552.2715	1.113e2
552.4112	1.619e1
552.6985	2.690e1
552.9423	2.724e1
553.0737	4.075e2
553.1733	2.795e1
553.3334	3.990e1
553.5761	6.764e2
553.7452	1.405e1
554.0111	1.181e1
554.0741	1.443e2
554.1584	1.638e1
554.3209	1.630e2
554.3996	5.024e1
554.4464	9.952e0
554.4861	4.157e1
554.5699	1.390e2
554.7036	1.267e1
554.8315	2.629e1
554.9282	2.367e1
555.0771	5.071e1
555.2885	6.076e1
555.5661	1.357e1
555.6266	1.200e1
555.6861	3.929e1
555.8298	3.614e1
555.8871	1.300e1
556.2355	2.829e1
556.2781	7.029e1
556.3341	1.724e1
556.4744	8.486e1
556.5669	3.121e3
556.8498	2.410e1
557.0699	1.220e3
557.2337	1.576e1
557.2977	1.605e1
557.5708	6.125e2
558.0739	4.331e2
558.2708	1.207e2
558.4039	5.476e1
558.4670	1.295e1
558.5754	7.305e1
558.6814	4.195e1
558.7228	6.805e1
558.8372	3.201e3
559.0853	3.076e3
559.1731	3.214e1
559.2310	8.743e1
559.3390	1.991e3
559.5922	9.024e2
559.6522	5.143e0
559.6983	3.076e1
559.7429	3.481e1
559.8465	3.880e2
560.0695	4.519e1
560.1840	4.371e1
560.2310	1.862e1
560.2830	7.448e1
560.3390	3.205e1
560.4171	1.771e1
560.4794	9.929e1
560.5831	3.765e3
560.7514	5.028e3
560.9191	3.993e3
561.0830	2.325e3
561.2499	1.349e3
561.4151	7.437e2
561.5136	2.555e2
561.5767	2.971e1
561.6379	3.067e1
561.6833	7.171e1
561.7581	5.257e1
561.7993	7.833e1
561.9324	1.061e2
562.0086	1.395e1
562.0879	6.957e1
562.1464	1.162e1
562.2202	2.857e1
562.3669	2.690e1
562.5174	3.167e1
562.6460	1.476e1
562.7375	2.567e1
562.7855	1.681e1
562.8546	9.895e1
562.9014	3.429e1
563.0793	7.110e1
563.1489	2.710e1
563.2828	3.467e1
563.3470	1.552e1
563.3991	5.290e1
563.5874	2.619e1
563.7507	1.520e2
563.9310	1.550e2
563.9888	1.581e1
564.0778	9.327e3
564.4103	4.837e3
564.6033	3.186e2
564.6508	1.573e2
564.7449	2.057e3
564.8200	9.995e1
564.9459	9.205e1
565.0859	1.141e3
565.4107	2.594e2
565.4684	1.181e1
565.5045	1.505e1
565.5577	1.519e1
565.6421	3.267e1
565.7329	1.247e2
565.8372	1.905e1
566.0886	1.763e2
566.2514	1.405e1
566.4073	9.954e2
566.5167	3.793e2
566.6541	2.014e2
566.7416	6.013e2
566.8024	2.048e2
567.0811	2.131e3
567.2916	1.332e3
567.4153	1.218e3
567.4909	1.739e3
567.5759	8.548e1
567.6896	1.595e3
567.7476	4.431e2
567.8174	4.576e1
567.8953	5.343e2
568.0873	7.015e2
568.2255	8.324e1
568.2790	9.471e1
568.3187	6.429e1
568.3549	1.405e1
568.3821	1.729e1
568.4181	2.290e1
568.5026	2.429e1
568.6047	1.581e2
568.8328	8.100e1
569.0804	3.517e2
569.1152	1.331e2
569.4183	5.655e2
569.5637	6.814e1
569.6167	1.169e2
569.7481	4.293e2
569.8256	7.976e1
569.8870	2.319e1
569.9796	8.190e0
570.0285	8.352e1
570.0844	2.660e2
570.1368	2.238e1
570.2769	2.000e1
570.4215	1.309e2
570.4751	2.995e1
570.6544	5.429e1
570.7520	1.619e1
570.8939	1.260e2
571.0821	1.277e2
571.4094	5.674e3
571.5665	2.214e1
571.7433	3.988e3
571.8950	1.424e1
572.0762	1.957e3
572.2489	2.048e1
572.4117	8.563e2
572.4772	1.529e1
572.5961	1.424e1
572.7490	2.474e2
572.8882	3.505e1
573.1122	5.857e3
573.3306	1.114e3
573.4182	6.662e1
573.4743	4.495e1
573.6114	3.850e3
573.8328	4.954e2
573.9558	6.033e1
574.1129	1.166e3
574.3846	2.524e1
574.5673	3.914e1
574.6215	3.079e2
575.0966	1.060e2
575.2236	4.452e1
575.2927	2.019e1
575.5836	1.488e2
575.6252	3.648e1
575.8322	2.740e2
575.9789	4.471e1
576.0860	1.413e2
576.1862	4.448e1
576.2628	3.386e1
576.3384	7.124e1
576.4193	1.119e2
576.4829	1.218e2
576.5803	3.690e1
576.6783	7.833e1
576.7575	1.948e1
576.8452	1.476e1
576.9316	5.667e1
577.1076	1.170e2
577.2623	3.405e1
577.3515	2.205e1
577.4160	2.419e2
577.6161	2.074e2
577.7516	3.630e2
578.0959	1.177e2
578.2346	1.323e2
578.2944	4.571e1
578.3753	7.671e1
578.4215	9.776e1
578.5966	3.833e1
578.6660	2.181e1
578.7509	8.886e1
578.8295	3.039e3
579.0823	2.928e3
579.1714	4.814e1
579.2293	1.838e1
579.3350	1.487e3
579.4314	4.857e1
579.5063	3.495e1
579.5896	6.610e2
579.6920	1.519e1
579.8257	3.774e2
579.9183	3.943e1
579.9717	2.414e1
580.0791	7.814e1
580.2198	2.357e1
580.3780	3.457e3
580.5192	5.697e3
580.6644	5.146e3
580.8085	3.586e3
580.9500	2.016e3
581.0941	8.473e2
581.1813	1.829e1
581.2350	3.084e2
581.3322	7.324e1
581.3883	2.005e2
581.4993	2.000e1
581.5970	6.400e1
581.6720	2.687e2
581.7462	2.114e1
581.8033	2.685e2
581.9554	2.011e2
582.0876	1.165e2
582.2369	6.429e1
582.4388	1.531e3
582.5411	7.929e1
582.5875	1.334e2
582.7747	1.032e3
582.9572	5.762e1
583.1044	6.720e2
583.1897	1.790e1
583.2861	6.937e2
583.3408	1.500e2
583.4375	1.350e2
583.4843	9.318e2
583.5809	1.029e2
583.6855	8.286e2
583.7540	6.305e1
583.8095	9.944e2
583.8815	2.957e2
583.9482	8.307e2
584.0941	1.124e3
584.2373	9.428e2
584.3786	3.724e2
584.5231	2.068e2
584.6090	3.729e1
584.6694	2.519e2
584.9387	1.410e1
585.0831	1.005e3
585.1736	1.338e1
585.2847	9.685e2
585.3708	2.986e1
585.4846	6.755e2
585.5669	7.486e1
585.6851	3.520e2
585.7638	4.029e1
585.8059	5.443e1
585.8885	1.194e2
586.0125	2.238e1
586.0840	1.749e2
586.2380	2.833e1
586.5684	1.857e1
586.6230	5.233e1
586.7011	3.933e1
586.8199	1.519e1
586.8973	1.629e2
587.0045	1.857e1
587.0405	4.238e0
587.0964	4.260e2
587.2891	6.729e1
587.3558	3.503e2
587.4216	3.671e1
587.4944	6.919e1
587.6127	2.547e2
587.8011	4.338e1
587.8752	4.124e1
588.0357	1.167e1
588.0963	1.143e2
588.1971	6.195e1
588.3072	1.862e1
588.3916	3.286e1
588.5609	1.074e2
588.8856	7.267e1
589.0626	2.597e2
589.2352	6.690e1
589.4174	3.886e1
589.4976	3.076e1
589.5607	1.329e1
589.6664	3.595e1
589.7740	9.252e1
589.8058	5.881e1
589.8376	3.576e1
589.8694	1.800e1
589.9077	3.176e1
590.0858	6.302e2
590.2413	8.405e1
590.2848	5.824e1
590.3530	1.171e1
590.4230	8.214e1
590.4785	4.829e1
590.5883	4.443e2
590.7637	1.908e2
591.0848	3.026e2
591.1567	4.467e1
591.4185	7.110e1
591.4781	1.943e1
591.5915	3.597e2
591.8201	1.000e1
591.8741	6.910e1
591.9891	4.081e1
592.0919	8.725e2
592.2473	1.619e1
592.4018	3.133e1
592.4939	6.386e1
592.5944	1.492e2
592.6602	6.500e1
592.8065	1.952e1
592.8613	4.319e1
593.1004	2.505e2
593.1625	2.714e1
593.3540	4.538e1
593.4114	8.719e1
593.5221	1.235e2
593.5847	3.948e1
593.6583	3.976e1
593.7291	5.976e1
593.8693	3.929e1
593.9545	5.914e1
594.0953	1.222e2
594.1569	4.352e1
594.2550	7.500e1
594.3865	1.833e1
594.5894	2.652e1
594.6527	9.762e0
594.7102	7.576e1
594.7629	4.793e2
594.9061	4.838e1
595.0236	2.181e1
595.0981	2.626e2
595.1534	1.233e1
595.3126	6.838e1
595.4309	1.731e2
595.5889	3.976e1
595.7727	4.446e2
595.8462	1.152e1
595.9014	3.981e1
595.9744	2.143e1
596.1112	4.818e2
596.2730	4.800e1
596.3484	2.038e1
596.4320	3.815e2
596.4865	1.996e2
596.5500	1.199e2
596.5894	2.877e2
596.7314	6.857e1
596.7634	9.638e1
596.9270	1.952e1
597.0622	1.722e2
597.1062	3.886e2
597.2178	1.719e1
597.3474	4.503e2
597.4835	2.505e1
597.5844	2.847e2
597.7435	6.881e1
597.8467	5.890e1
597.8995	8.729e1
597.9625	5.476e1
598.0945	5.158e2
598.2355	1.200e2
598.3054	1.724e2
598.5083	1.151e2
598.5958	1.506e2
598.7344	1.583e2
598.8252	6.833e1
598.9259	6.652e1
599.0906	4.351e2
599.1956	8.533e1
599.2525	1.882e2
599.3008	3.127e2
599.3590	4.476e1
599.4293	9.071e1
599.5350	1.955e2
599.6703	1.939e4
599.8141	3.240e4
599.9573	3.108e4
600.0997	2.228e4
600.2434	1.204e4
600.3866	6.312e3
600.4501	6.833e1
600.5304	2.493e3
600.5957	1.214e2
600.6733	8.475e2
600.7713	1.407e2
600.8224	4.768e2
600.9105	1.529e1
600.9592	3.268e2
601.0068	5.681e1
601.0988	5.832e3
601.1996	6.814e1
601.2712	6.059e2
601.3923	6.181e1
601.4519	1.280e2
601.4881	1.125e2
601.5950	4.939e2
601.6866	2.814e1
601.7527	1.666e2
601.8452	8.376e1
601.9587	1.569e2
602.0998	1.733e3
602.1745	5.067e1
602.2364	1.955e2
602.3034	4.010e1
602.3967	2.091e2
602.4732	1.295e1
602.5390	1.622e2
602.5941	5.303e2
602.6630	6.833e1
602.7470	1.858e2
602.8395	7.684e2
602.8881	8.724e2
602.9574	1.429e2
603.0161	2.481e1
603.0908	1.876e3
603.2905	9.621e2
603.3387	1.046e3
603.4252	7.057e2
603.4936	5.226e2
603.5919	1.116e3
603.6902	3.725e2
603.7526	4.189e2
603.8412	5.616e2
603.8979	1.315e2
603.9729	2.595e1
604.0916	5.389e3
604.2920	6.357e1
604.3552	9.343e1
604.4214	8.771e2
604.5907	6.162e2
604.7586	2.948e2
604.8302	3.257e1
605.0914	3.161e2
605.4282	6.248e1
605.5483	6.552e1
605.6139	2.019e1
605.7548	4.033e1
605.8940	2.395e1
605.9686	1.538e1
606.0912	1.383e2
606.2758	1.452e1
606.3418	1.957e1
606.4346	8.071e1
606.5897	1.287e2
606.7576	1.410e1
606.8469	6.905e1
607.0953	4.495e3
607.2441	5.686e1
607.3481	3.815e3
607.4078	8.381e0
607.4748	2.200e1
607.5972	2.046e3
607.6977	4.781e1
607.8502	1.109e3
608.0256	6.000e0
608.0978	7.065e2
608.3479	1.462e2
608.4198	5.278e2
608.5952	8.020e2
608.6548	8.333e0
608.6909	3.052e1
608.7597	3.471e2
608.9200	1.562e1
608.9927	2.481e1
609.0959	3.290e4
609.2750	4.505e1
609.3231	1.076e1
609.4301	2.452e4
609.5867	1.493e2
609.7640	1.141e4
609.9300	6.510e1
610.0989	8.240e3
610.2194	2.110e1
610.2964	2.340e2
610.4333	1.139e3
610.4938	1.092e2
610.6004	6.124e1
610.6932	2.786e2
610.7689	3.287e2
610.8978	5.014e1
611.0980	9.117e2
611.2666	4.429e1
611.3490	6.862e1
611.4244	1.879e2
611.6025	5.086e1
611.7582	9.410e1
611.8297	2.557e1
611.8810	1.905e1
611.9415	4.386e1
612.0128	1.871e1
612.0946	3.150e3
612.2945	2.865e3
612.4948	2.458e3
612.5912	3.365e2
612.6930	9.665e2
612.7587	5.509e2
612.8429	1.328e2
612.9041	9.867e2
613.0954	2.799e4
613.2659	4.141e2
613.3187	6.724e1
613.3512	1.347e2
613.4370	1.523e2
613.5972	1.263e4
613.7526	7.419e1
613.8376	9.238e1
613.8813	2.976e1
613.9483	1.080e2
614.0981	4.507e3
614.2703	1.675e2
614.4321	7.177e2
614.5986	1.117e3
614.7563	4.949e2
614.9558	1.371e1
615.0942	5.534e2
615.3491	4.005e1
615.4372	1.418e2
615.4963	2.319e1
615.6035	9.286e1
615.7618	6.876e1
615.9179	7.088e2
616.0887	1.583e3
616.2495	5.667e2
616.4221	6.554e2
616.5844	2.675e2
616.6468	8.667e0
616.7624	2.050e2
616.8066	3.252e1
617.0236	9.810e0
617.0936	9.396e2
617.2140	1.643e1
617.3329	7.757e2
617.4072	5.657e2
617.5851	1.494e3
617.7412	2.542e2
617.8297	4.150e2
617.8991	6.586e1
618.0905	7.890e2
618.3267	9.000e1
618.4081	3.948e1
618.5982	1.829e2
618.7173	1.414e1
618.7724	1.690e1
618.8817	3.338e2
618.9775	8.571e0
619.0900	1.010e3
619.2828	3.093e2
619.4807	1.423e2
619.5930	7.657e1
619.7562	1.914e1
619.8401	3.976e1
619.9123	1.474e2
620.0992	4.420e2
620.2615	1.712e2
620.3480	2.862e1
620.4216	3.294e2
620.5840	9.586e1
620.6779	8.514e1
620.7464	1.458e2
620.8810	3.017e2
620.9279	1.010e2
621.0875	4.107e2
621.1424	2.205e1
621.2954	1.211e2
621.4968	1.060e2
621.5931	9.757e1
621.6725	2.167e1
621.8318	9.986e1
621.9169	2.162e1
622.0903	2.403e2
622.3351	4.038e1
622.4272	2.905e2
622.4856	8.114e1
622.5654	3.238e2
622.6237	7.429e0
622.7437	1.618e3
622.8764	4.595e1
622.9825	5.652e1
623.0770	1.291e3
623.3302	1.737e2
623.4087	7.142e2
623.5831	2.265e2
623.6721	6.605e1
623.7548	3.123e2
623.8364	1.720e2
623.9020	1.708e2
624.0909	5.960e2
624.2050	2.881e1
624.2404	6.271e1
624.3457	1.364e2
624.6001	1.996e2
624.7204	1.629e1
625.0999	3.340e2
625.2767	3.000e1
625.5766	7.272e2
625.6555	2.205e1
625.7473	3.604e2
626.0774	7.781e2
626.2915	4.690e1
626.3495	5.557e1
626.4165	2.168e2
626.5038	4.186e1
626.5832	2.114e2
626.7416	1.125e2
626.8368	1.667e1
627.0968	1.235e2
627.4414	2.271e1
627.6005	9.914e1
627.8397	3.500e1
627.9504	9.929e1
628.0935	1.380e2
628.2815	8.514e1
628.4908	5.824e1
628.6027	4.619e1
628.6808	4.495e1
628.7481	3.119e1
628.9080	1.833e1
629.0266	1.467e1
629.0753	1.238e1
629.2258	1.524e1
629.3478	1.410e1
629.4310	1.429e1
629.5867	1.211e2
629.6971	2.957e1
629.7599	1.054e2
629.9031	4.073e3
630.0019	4.562e1
630.1010	4.895e3
630.1711	1.047e2
630.3033	3.148e3
630.4089	6.786e1
630.5031	2.144e3
630.5783	1.959e2
630.6313	3.167e1
630.7070	1.117e3
630.9011	2.770e2
631.0861	1.028e3
631.1639	1.048e1
631.3435	4.283e2
631.4144	2.680e2
631.5078	2.557e1
631.5939	3.165e2
631.7262	1.661e2
631.8432	1.309e2
631.9952	2.338e1
632.0855	2.131e2
632.1305	5.252e1
632.2596	3.103e2
632.4221	7.018e2
632.5916	6.109e2
632.7039	2.390e1
632.7678	1.530e2
632.8419	5.281e1
632.9195	2.127e2
633.1063	5.413e2
633.1769	2.771e1
633.2909	2.429e1
633.3585	2.152e1
633.4319	1.371e1
633.5059	5.971e1
633.6029	1.129e2
633.7584	1.687e2
633.8557	3.086e1
633.8953	6.295e1
634.1038	2.308e2
634.2773	1.152e2
634.4333	9.686e1
634.5632	9.486e1
634.7031	1.261e2
634.7618	2.162e1
634.9000	6.338e1
635.0856	7.841e2
635.2754	3.333e1
635.4168	2.939e2
635.4842	1.219e1
635.6093	1.280e3
635.7502	1.671e2
635.8513	1.014e3
635.9253	1.800e2
636.0349	1.310e1
636.1021	7.643e2
636.2089	1.376e1
636.3546	3.297e2
636.4214	1.444e2
636.5966	3.816e2
636.7039	3.224e1
636.7617	1.780e2
636.8440	4.033e1
636.9261	4.738e1
637.1030	2.412e3
637.2381	2.381e1
637.3519	2.217e3
637.4883	7.352e1
637.5449	1.576e1
637.6030	1.154e3
637.7741	1.039e2
637.8502	6.031e2
637.9199	3.719e1
637.9529	4.162e1
638.0986	7.580e2
638.2555	1.405e1
638.4271	5.094e3
638.5937	7.448e3
638.7598	7.153e3
638.9276	3.708e3
639.0964	2.118e3
639.2001	4.219e1
639.2656	1.096e3
639.4295	3.272e2
639.5944	9.700e1
639.6549	2.014e1
639.7530	1.149e2
639.9294	4.882e2
640.0967	5.334e2
640.1982	1.605e1
640.2626	3.955e2
640.3570	1.329e1
640.4280	1.503e2
640.5991	2.401e2
640.7697	2.319e1
640.8475	2.952e1
641.1023	3.677e3
641.4355	2.858e3
641.5433	9.286e0
641.5994	2.444e2
641.7758	1.856e3
641.8417	4.909e2
641.9258	1.886e1
641.9802	1.695e1
642.0997	1.431e3
642.3333	2.033e2
642.4324	1.159e3
642.5959	1.512e3
642.7626	1.167e3
642.9263	6.846e2
643.1027	6.071e2
643.2700	1.907e2
643.4312	7.995e1
643.6046	6.248e1
643.7750	8.348e1
643.8533	2.300e1
643.9438	3.610e1
644.0897	9.585e2
644.3297	1.311e2
644.4378	8.248e1
644.5764	2.927e2
644.6983	2.476e1
644.7787	1.977e2
645.0768	1.434e2
645.2658	1.952e1
645.4391	1.016e2
645.5692	2.335e2
645.6431	7.857e0
645.6918	3.652e1
645.7430	1.305e1
645.8931	2.803e3
646.0926	4.501e3
646.2941	3.154e3
646.3869	2.567e1
646.4313	3.995e1
646.4935	2.147e3
646.5876	1.936e2
646.6920	7.370e2
646.7559	2.910e1
646.8936	2.300e2
647.0353	4.633e1
647.1016	2.502e2
647.2081	1.857e1
647.2867	1.586e1
647.3276	3.300e1
647.4316	5.633e1
647.5033	3.205e1
647.5981	1.018e2
647.6899	4.045e2
647.7729	2.224e2
647.9033	1.078e3
648.0170	1.824e1
648.1009	6.268e2
648.2957	3.805e2
648.3992	8.105e1
648.4855	1.655e2
648.6044	9.581e1
648.7682	2.476e1
649.1061	4.364e3
649.3385	4.190e1
649.4386	3.677e3
649.4999	1.971e1
649.6951	2.000e2
649.7767	1.770e3
649.8973	7.890e1
650.1053	1.766e3
650.4385	2.959e2
650.5517	3.571e1
650.6171	3.297e2
650.7028	3.374e2
650.7795	1.566e2
650.8945	5.109e2
651.0925	3.973e3
651.2043	2.714e1
651.3434	3.130e3
651.5952	2.272e3
651.7419	6.229e1
651.8428	1.099e3
651.9585	5.133e1
652.0933	9.632e2
652.2662	1.869e2
652.3496	1.579e2
652.4357	1.573e2
652.5967	3.380e2
652.6789	2.462e1
652.8334	1.138e2
652.9258	2.776e1
653.1078	2.446e3
653.2455	5.295e1
653.3011	1.152e1
653.4179	7.319e1
653.5068	6.576e1
653.6047	8.925e2
653.7414	2.100e1
653.9240	7.810e1
654.1061	5.620e2
654.2718	5.638e1
654.4600	5.119e1
654.5405	1.590e1
654.6037	8.210e1
654.6786	2.357e1
654.7654	2.511e3
654.9332	3.802e3
655.1013	3.386e3
655.2676	2.676e3
655.4352	1.794e3
655.5999	1.492e3
655.7630	4.790e2
655.8466	7.272e2
655.9399	1.640e2
656.0958	7.285e2
656.2661	5.800e2
656.3570	1.343e2
656.4319	6.893e2
656.5974	7.016e2
656.7709	6.521e2
656.8504	6.862e1
656.9125	9.511e2
657.1031	2.672e3
657.2092	1.714e1
657.3246	1.700e3
657.5154	6.136e2
657.6085	3.510e3
657.7266	2.514e2
657.7822	2.757e1
657.8472	4.769e2
657.9149	1.837e2
657.9922	2.381e1
658.1107	2.480e3
658.3399	1.405e1
658.4250	5.729e1
658.6152	1.073e3
658.6992	6.810e1
658.7615	4.883e2
658.8281	3.976e1
658.8640	2.338e1
658.9387	9.342e2
659.0001	1.776e1
659.1081	1.314e3
659.2689	6.258e2
659.4445	1.497e2
659.6050	1.595e2
659.6926	2.486e1
659.7361	3.733e1
659.7803	1.202e2
659.9642	5.024e1
660.0497	2.876e1
660.1456	8.995e1
660.2763	1.812e2
660.3466	3.443e1
660.4518	8.976e1
660.4897	8.990e1
660.5787	8.867e1
660.7012	7.490e1
660.7536	2.640e2
660.8135	1.519e1
660.9365	1.805e4
661.1041	3.339e4
661.2710	2.898e4
661.4363	1.800e4
661.5042	2.598e2
661.6040	1.018e4
661.7703	4.607e3
661.9406	1.611e3
662.1119	1.763e3
662.2910	2.014e2
662.3516	8.748e1
662.4246	3.178e2
662.4763	6.243e1
662.6094	6.560e2
662.7686	3.079e2
662.8218	6.705e1
662.9448	1.914e2
663.1165	3.807e2
663.2639	2.667e1
663.4206	1.220e2
663.6167	1.770e2
663.6898	1.976e2
663.7699	1.962e2
663.8979	1.364e2
663.9457	1.506e2
664.0972	6.047e2
664.2948	1.868e2
664.5019	8.124e1
664.5463	1.524e1
664.6034	2.191e2
664.7288	2.077e2
664.8687	4.116e2
664.9292	1.190e1
664.9835	2.305e1
665.1127	7.576e2
665.2858	1.157e2
665.3652	3.759e2
665.4304	2.665e2
665.5033	3.626e2
665.6089	5.375e2
665.7145	3.548e2
665.7758	1.450e2
665.8193	2.962e1
665.8531	1.176e1
665.9073	3.348e2
666.0447	2.533e1
666.1034	2.938e2
666.2959	1.035e2
666.4342	3.400e1
666.6195	3.793e2
666.7045	1.590e1
666.8140	3.143e1
666.9736	4.571e1
667.1298	1.912e2
667.3093	2.000e1
667.3914	1.690e1
667.4645	3.643e1
667.6147	1.604e2
667.7588	1.823e4
667.9084	1.453e2
668.0937	1.489e4
668.4267	8.265e3
668.5540	5.057e1
668.6059	1.038e1
668.7634	3.622e3
668.8979	6.033e1
669.0060	2.390e1
669.0962	1.458e3
669.3660	5.497e3
669.4373	4.420e2
669.6182	6.002e3
669.7638	2.192e2
669.8702	4.175e3
669.9748	2.310e1
670.0297	3.343e1
670.1168	2.071e3
670.2796	2.045e2
670.3688	6.756e2
670.4413	1.455e2
670.5272	2.000e1
670.6150	3.412e2
670.6969	6.638e1
670.7616	1.793e3
670.9113	7.662e1
671.0973	1.666e3
671.2914	7.562e1
671.4348	1.321e3
671.5054	9.486e1
671.6042	3.247e2
671.7682	9.987e2
671.8567	1.378e2
671.9479	2.733e1
672.0980	4.112e2
672.2594	3.810e1
672.3449	3.233e1
672.4429	1.718e2
672.5846	7.881e1
672.6723	1.482e2
672.7131	8.205e1
672.8069	5.695e1
672.9047	7.780e3
673.1055	1.027e4
673.3039	7.943e3
673.5056	4.711e3
673.5731	9.195e1
673.6117	2.528e2
673.7063	1.943e3
673.7733	1.851e2
673.9021	9.616e2
674.1057	6.449e2
674.2870	1.014e2
674.3328	4.452e1
674.4265	6.448e1
674.6175	2.636e2
674.7071	1.065e2
674.7708	1.298e2
674.8364	4.895e1
674.9373	4.292e2
675.0420	4.376e1
675.1055	2.417e2
675.2748	1.040e2
675.3568	6.176e1
675.4199	4.124e1
675.6033	2.472e3
675.7641	9.826e2
675.8540	2.859e3
676.1025	2.705e3
676.2734	5.843e1
676.3562	9.567e2
676.4335	5.610e2
676.4894	7.938e1
676.5463	1.133e1
676.6042	5.078e2
676.6981	9.471e1
676.7634	5.547e2
676.8578	1.298e2
676.9227	8.371e1
676.9894	8.148e1
677.1070	2.022e2
677.2751	8.676e3
677.4432	1.407e4
677.6096	1.587e4
677.7777	9.192e3
677.9437	5.316e3
678.1083	2.395e3
678.2776	1.020e3
678.4469	2.520e2
678.6190	1.940e2
678.7752	1.481e3
678.9423	2.832e3
679.0442	1.381e1
679.1109	2.050e3
679.1845	4.395e1
679.2753	1.111e3
679.4472	9.410e2
679.5044	4.533e1
679.6154	5.788e2
679.7767	1.611e2
679.8334	2.819e1
679.9022	2.543e2
679.9587	9.448e1
680.0385	9.667e0
680.1022	2.710e2
680.2178	4.943e1
680.2833	1.134e2
680.3622	3.876e1
680.4316	2.262e1
680.5779	4.548e1
680.7883	1.440e2
680.8555	2.152e1
681.1089	9.823e2
681.2813	5.195e2
681.4427	1.219e3
681.6087	1.424e3
681.7813	8.156e2
681.8546	2.857e2
681.9458	5.079e2
682.1003	5.824e2
682.1700	9.667e0
682.2021	1.433e1
682.2719	9.333e1
682.3563	1.056e2
682.4443	1.195e2
682.5456	2.329e1
682.5954	2.595e1
682.8297	2.052e1
682.9718	1.848e1
683.0956	6.948e1
683.1533	2.367e1
683.2783	6.210e1
683.4255	1.533e1
683.5034	4.824e1
683.6872	5.481e1
683.8487	1.781e1
683.9026	2.167e1
684.1008	1.552e2
684.1740	1.700e1
684.5413	1.371e1
684.6090	5.386e1
684.7610	2.690e1
684.8538	5.710e2
684.9645	3.724e1
685.1073	7.135e2
685.2985	1.781e1
685.3593	3.460e2
685.4455	4.081e1
685.5200	4.095e1
685.6090	2.695e2
685.7385	3.067e1
685.8685	7.000e1
686.1209	1.942e3
686.2766	2.410e1
686.4546	1.682e3
686.6446	5.957e1
686.6998	4.471e1
686.7925	4.539e3
687.0593	5.452e1
687.1277	4.386e3
687.2070	3.681e1
687.2921	7.762e1
687.4601	2.426e3
687.5536	1.033e1
687.6004	7.157e1
687.7134	2.710e1
687.7950	8.040e2
687.8691	6.705e1
687.9660	1.948e1
688.0223	3.729e1
688.1275	3.070e2
688.3032	3.381e1
688.3879	1.486e1
688.4695	8.095e1
688.5986	2.063e2
688.8599	2.046e2
688.9073	2.337e2
689.0416	2.171e1
689.1104	5.252e2
689.3603	2.181e3
689.4700	5.005e1
689.5142	3.462e1
689.6091	1.753e3
689.7101	6.143e1
689.8607	1.268e3
690.1019	4.549e3
690.3555	2.667e2
690.4427	3.114e1
690.4842	6.138e1
690.6022	2.342e3
690.7122	5.710e2
690.8560	6.676e1
690.9156	6.814e2
691.1068	1.318e3
691.3090	3.292e2
691.5128	1.890e2
691.5990	5.548e2
691.8455	2.725e2
691.9169	5.429e1
692.0966	5.777e2
692.2053	1.786e1
692.3484	1.125e2
692.4565	1.616e2
692.5146	4.199e2
692.6131	4.860e2
692.7164	1.041e3
692.7849	5.544e2
692.9374	1.163e3
693.0953	7.296e3
693.3085	2.760e2
693.4507	1.911e2
693.5948	3.724e3
693.8025	3.086e1
693.8670	3.624e1
693.9092	6.438e1
694.0979	1.742e3
694.2382	1.567e1
694.3145	1.648e2
694.3734	1.719e1
694.4185	1.156e2
694.4973	1.077e2
694.5980	3.162e2
694.7178	1.992e2
694.7647	5.657e1
694.8972	9.110e1
695.1088	5.544e2
695.3578	4.629e1
695.4384	3.134e2
695.5938	1.372e3
695.7688	1.561e2
695.8491	1.413e3
695.9941	1.848e1
696.0946	1.052e3
696.3533	6.079e2
696.4512	2.114e1
696.5233	1.610e1
696.5957	2.613e2
696.8328	7.033e1
696.9044	6.519e1
697.0873	2.207e2
697.2971	4.076e1
697.4089	5.771e1
697.5106	2.719e1
697.5993	1.509e3
697.7258	3.857e1
697.8359	9.776e1
697.9123	3.371e1
698.0984	2.354e3
698.2296	1.524e1
698.3466	8.652e1
698.4252	2.462e1
698.4651	1.133e1
698.5984	1.054e3
698.8569	1.247e2
699.1357	5.905e3
699.2734	2.852e1
699.3062	3.348e1
699.3487	5.724e1
699.4393	9.605e1
699.5279	1.272e2
699.6109	1.480e2
699.6661	2.495e1
699.7867	1.070e2
699.8642	3.624e1
699.9542	6.929e1
700.1383	1.567e3
700.2208	2.814e1
700.3530	1.454e2
700.4372	4.312e3
700.5329	6.014e1
700.5989	1.627e2
700.7697	4.176e3
700.8610	9.167e1
700.9319	1.319e1
701.0924	1.460e4
701.2324	2.967e1
701.2968	1.867e1
701.4388	8.041e2
701.5914	7.095e3
701.7744	2.752e2
701.8470	6.663e2
701.9814	4.267e1
702.0957	3.789e3
702.1681	4.319e1
702.3428	2.406e2
702.4333	1.531e2
702.5987	1.533e3
702.7177	1.857e1
702.8659	2.190e1
703.0988	5.970e2
703.1663	2.405e1
703.2644	5.805e1
703.4428	6.214e1
703.6012	7.733e1
703.7272	3.757e1
703.7703	1.679e2
703.9963	2.586e1
704.0966	2.441e2
704.4341	2.381e1
704.5936	1.108e2
704.7239	3.267e1
704.8467	1.827e2
704.8979	7.629e1
705.1027	8.195e2
705.3492	3.502e2
705.4411	5.548e1
705.5080	2.233e1
705.5972	1.055e3
705.6996	1.518e2
705.8864	8.595e1
705.9536	9.143e0
705.9897	2.867e1
706.0969	6.048e2
706.1625	1.438e1
706.4479	3.381e1
706.6027	1.236e3
706.7093	3.779e2
706.8239	2.624e1
706.9048	4.049e2
707.0332	2.276e1
707.1054	6.967e2
707.3063	2.229e2
707.3643	1.280e2
707.4412	1.812e2
707.5094	1.182e2
707.6128	2.962e2
707.7868	2.191e2
707.8464	2.990e1
707.8840	1.011e2
708.0101	3.967e1
708.0556	1.271e1
708.1340	4.948e2
708.2067	6.762e0
708.3615	3.762e1
708.4446	2.925e2
708.5060	6.835e2
708.6003	6.705e1
708.7076	5.170e2
708.7786	3.696e2
708.9064	6.233e2
709.1144	6.953e2
709.2067	1.219e1
709.2428	3.233e1
709.3676	8.608e3
709.5078	1.571e2
709.6175	9.756e3
709.7241	1.281e2
709.8680	5.987e3
709.9280	4.419e1
710.1166	3.132e3
710.3096	2.933e2
710.3699	1.365e3
710.5116	3.255e2
710.6218	4.670e2
710.7100	1.332e2
710.8477	6.214e1
710.8940	1.686e2
711.0092	2.048e1
711.1153	1.313e2
711.2970	6.814e1
711.6125	1.208e2
711.7036	6.148e1
711.8783	2.370e2
712.1100	3.242e2
712.2864	1.929e1
712.3682	1.136e2
712.5076	2.048e1
712.5983	1.798e2
712.7770	1.146e3
712.8403	9.476e0
712.8825	3.471e1
712.9820	1.695e1
713.0998	4.853e3
713.2175	9.857e0
713.2991	1.101e2
713.3638	1.680e2
713.4478	4.653e3
713.6000	1.964e3
713.7844	3.898e3
713.8712	1.546e2
713.9171	5.976e1
713.9719	2.057e1
714.1140	3.241e3
714.1820	3.390e1
714.3785	1.429e2
714.4536	9.454e2
714.6035	2.922e2
714.7003	6.729e1
714.7868	2.331e2
715.1261	8.128e2
715.2830	2.333e1
715.3527	1.012e2
715.4497	3.010e1
715.6197	8.081e1
715.7899	8.105e1
715.9158	4.399e2
716.1193	9.318e2
716.3183	5.280e2
716.4451	1.402e2
716.5214	2.279e2
716.6118	1.023e2
716.7204	1.861e2
716.8635	7.952e1
716.9298	1.058e2
717.1262	1.899e2
717.3041	7.671e1
717.4226	1.671e1
717.4880	2.614e1
717.5919	1.178e2
717.7228	8.579e2
717.7875	1.338e1
717.8519	3.776e1
717.9238	1.287e3
718.1229	1.041e3
718.3286	7.135e2
718.5189	2.200e2
718.6120	4.200e1
718.7181	8.333e1
718.7802	9.160e2
718.9290	5.114e1
719.1158	9.816e2
719.3160	1.324e1
719.3674	1.448e1
719.4531	4.709e2
719.5176	2.884e2
719.6200	3.890e1
719.6785	8.557e1
719.7371	2.009e2
719.7838	2.251e2
719.9219	1.782e2
720.1057	8.552e2
720.3583	5.992e2
720.4541	6.595e1
720.5135	1.405e1
720.6348	3.626e3
720.7100	1.686e1
720.7774	3.981e1
720.8615	2.321e2
721.1391	1.856e3
721.2363	2.867e1
721.3690	1.448e2
721.4460	2.167e1
721.5263	2.333e1
721.6371	8.250e2
721.7624	4.762e2
721.9157	8.871e1
722.1135	5.553e2
722.3015	6.510e1
722.3643	1.657e1
722.4344	1.364e2
722.6163	1.950e2
722.7742	1.596e2
722.8542	6.400e1
722.9669	1.410e1
723.1074	1.486e2
723.3032	5.995e1
723.4393	6.014e1
723.5087	1.626e2
723.5925	5.890e1
723.6444	1.305e1
723.6817	2.800e1
723.7501	3.576e1
723.7945	5.952e1
724.1053	9.786e1
724.1732	1.267e1
724.3199	3.200e1
724.3848	1.314e1
724.6890	1.290e1
724.7586	3.952e1
725.1096	9.286e1
725.1733	4.138e1
725.3433	1.559e2
725.5118	7.219e1
725.6402	1.714e2
725.7020	1.052e1
725.7779	1.424e1
725.9622	2.262e1
726.1075	2.621e2
726.3226	3.807e2
726.5084	3.210e2
726.6426	1.860e2
726.7252	9.005e1
726.9026	2.767e2
727.0949	1.092e3
727.1722	4.205e1
727.2518	1.443e1
727.3103	2.124e1
727.4310	1.032e3
727.5342	1.086e1
727.6039	3.061e2
727.7625	7.206e2
727.8666	1.171e2
728.1046	4.770e2
728.3194	3.579e2
728.4338	2.186e2
728.5132	1.162e2
728.6288	2.354e2
728.7162	8.333e1
728.7653	1.011e2
728.9274	7.157e1
729.1357	2.042e2
729.2219	2.633e1
729.3577	8.069e3
729.6265	1.733e4
729.7235	1.813e2
729.8575	5.529e3
730.1320	9.117e3
730.2272	4.724e1
730.2744	2.057e1
730.3629	1.549e3
730.4340	9.252e1
730.5257	3.581e1
730.6405	2.517e3
730.7625	1.173e2
730.8638	1.335e2
730.9687	3.862e1
731.1445	8.242e2
731.2653	1.619e1
731.4760	7.981e1
731.6110	1.413e3
731.7657	2.005e1
731.8577	7.514e2
732.0460	8.524e0
732.1124	7.849e2
732.2823	3.095e1
732.3563	5.538e2
732.4406	5.757e1
732.5088	5.938e1
732.6072	1.740e2
732.7717	3.171e1
732.8654	1.450e2
733.1086	3.514e2
733.1888	1.629e1
733.2945	3.529e1
733.3572	2.988e2
733.4255	2.033e1
733.4819	2.210e1
733.6001	2.179e2
733.7227	3.410e1
733.8655	1.362e2
734.1104	4.375e2
734.2080	4.371e1
734.3099	2.490e1
734.3691	1.800e2
734.4754	2.200e1
734.5657	5.548e1
734.6444	1.595e2
734.8880	1.379e2
735.0068	2.790e1
735.0974	5.521e2
735.3638	1.834e2
735.4353	4.198e2
735.5157	2.247e3
735.6120	1.203e2
735.7156	2.589e3
735.7850	1.014e2
735.9185	2.268e3
736.1137	1.671e3
736.2407	7.490e1
736.3184	7.011e2
736.5174	5.406e2
736.6138	3.090e1
736.6559	3.557e1
736.7220	1.739e2
736.9033	1.196e2
737.0184	1.976e1
737.1137	1.607e2
737.3148	1.202e2
737.4204	5.790e1
737.5129	8.557e1
737.6342	3.139e2
737.7266	1.223e2
737.8558	1.905e2
737.9198	3.476e2
738.1171	4.266e2
738.3099	3.633e1
738.3938	2.576e1
738.4645	2.216e2
738.6088	8.119e1
738.6430	4.314e1
738.7910	1.637e2
738.8567	4.314e1
739.1227	1.259e2
739.2975	4.755e2
739.4483	4.114e2
739.5048	8.429e2
739.7021	6.805e2
739.7809	4.380e2
739.9015	3.580e2
740.1120	5.312e2
740.2989	4.295e1
740.4503	2.592e2
740.5253	7.252e1
740.6242	1.410e1
740.7889	8.500e1
740.8765	4.217e2
741.1135	1.189e3
741.3085	4.457e2
741.3777	1.962e2
741.4590	1.245e2
741.5043	2.600e2
741.5970	4.332e2
741.6978	1.763e2
741.7913	7.057e1
741.8988	5.995e1
742.1135	1.728e3
742.3699	3.024e1
742.6108	1.221e3
742.7850	3.052e1
742.8842	4.205e1
742.9898	1.429e1
743.1241	2.727e3
743.3781	2.329e3
743.4618	7.071e1
743.6273	1.502e3
743.6917	3.719e1
743.8826	8.789e2
744.0461	3.105e1
744.1263	6.282e2
744.3051	2.287e2
744.3864	5.957e1
744.5122	1.585e2
744.5761	9.776e1
744.7064	1.480e2
744.8304	2.786e1
744.9072	1.643e1
745.1283	3.900e1
745.2647	1.038e1
745.3127	3.600e1
745.3778	8.904e2
745.4568	1.393e4
745.6296	1.459e3
745.7911	1.341e4
745.8800	1.025e3
745.9463	1.905e1
746.1270	8.355e3
746.3002	9.000e1
746.3803	1.547e2
746.4578	3.329e3
746.5341	3.019e1
746.6168	1.702e2
746.7932	9.848e2
746.9329	2.357e1
747.1260	6.312e2
747.3163	8.857e1
747.5207	2.359e2
747.6239	1.603e2
747.7329	1.478e2
747.8713	7.905e0
747.9222	4.348e1
748.1241	1.447e2
748.3372	3.510e1
748.3837	4.976e1
748.4533	1.906e2
748.5222	1.066e2
748.6351	1.454e2
748.7112	1.697e2
748.8008	1.185e2
748.8548	3.200e1
748.9203	1.830e2
749.1154	2.568e2
749.3051	8.286e0
749.3644	6.624e1
749.4601	6.581e1
749.5310	2.800e1
749.7927	7.814e1
749.8688	2.371e2
750.1133	4.030e2
750.3220	2.028e3
750.5229	2.736e3
750.6163	3.333e2
750.7238	2.552e3
750.9216	2.353e3
751.0114	7.352e1
751.1232	9.558e2
751.3281	4.092e2
751.4564	1.398e2
751.5148	5.043e1
751.6922	3.833e1
751.7925	8.690e1
751.8422	2.033e1
751.9272	3.581e1
751.9827	1.305e1
752.1218	2.996e2
752.3189	2.630e2
752.4274	1.176e1
752.5226	2.593e2
752.6251	6.843e1
752.7277	1.689e2
752.7833	3.548e1
752.8643	1.310e1
752.9290	3.700e1
753.0225	9.381e0
753.1085	6.433e2
753.3111	1.585e2
753.4470	4.248e1
753.5366	2.918e2
753.6221	1.534e2
753.7261	2.555e2
753.8679	3.504e3
753.9445	1.749e2
754.1186	4.688e3
754.2177	7.419e1
754.3688	2.745e3
754.6210	1.738e3
754.6832	2.738e1
754.7313	4.567e1
754.8007	1.090e1
754.8744	5.714e2
755.1252	8.556e2
755.3256	8.496e2
755.3792	6.695e1
755.5267	8.881e2
755.6359	1.348e2
755.7310	7.646e2
755.9226	3.454e2
756.1140	2.349e2
756.3272	2.870e2
756.5192	3.619e1
756.6284	1.801e2
756.7123	1.567e1
756.7853	1.714e1
756.8877	3.048e1
757.0477	1.457e1
757.1204	2.786e1
757.3643	6.176e1
757.6243	2.912e2
757.7698	1.125e2
757.8552	5.362e1
757.9138	1.114e2
758.1195	2.497e2
758.3485	1.676e1
758.4168	3.262e1
758.5024	2.881e1
758.6389	2.136e2
758.7876	7.371e1
758.9172	1.216e2
759.1165	3.687e2
759.3133	4.133e1
759.4584	7.019e1
759.5127	4.990e1
759.6234	1.656e2
759.7087	1.548e2
759.7790	1.555e2
759.8714	6.779e2
759.9825	3.981e1
760.1241	7.252e2
760.1913	4.781e1
760.2247	5.638e1
760.3756	4.378e2
760.4472	2.314e1
760.4776	1.990e1
760.6218	8.741e2
760.7259	2.624e2
760.8805	3.400e2
761.1159	7.701e2
761.2963	5.614e1
761.3613	5.071e1
761.4672	2.000e1
761.6188	4.767e2
761.7861	7.367e1
761.9267	3.162e1
762.1206	5.840e2
762.3834	1.084e2
762.4693	6.443e1
762.6344	3.698e2
762.8040	3.005e1
762.8402	4.271e1
762.9233	6.576e1
763.1211	1.231e3
763.3222	1.029e3
763.3711	4.240e2
763.5221	6.603e2
763.6189	5.489e2
763.7194	2.400e2
763.9074	3.360e2
764.1190	3.640e2
764.3133	5.319e1
764.3832	8.657e1
764.4193	6.419e1
764.5013	3.386e1
764.7092	4.338e1
764.7816	5.013e2
764.9368	4.338e1
765.1213	1.046e3
765.2214	1.176e1
765.3734	1.720e3
765.4502	3.672e2
765.6260	2.302e3
765.7856	2.318e2
765.8711	1.114e3
765.9850	2.286e1
766.0430	1.362e1
766.1284	1.167e3
766.3131	4.067e3
766.5165	5.700e3
766.6305	2.412e2
766.7171	4.365e3
766.9156	3.086e3
767.1167	1.826e3
767.1984	1.012e2
767.3183	9.163e2
767.5204	3.147e2
767.6132	1.078e2
767.7709	2.152e2
767.8776	1.281e2
767.9465	5.433e1
768.1219	1.621e3
768.3220	1.104e3
768.4358	1.197e2
768.5190	1.013e3
768.6208	3.964e3
768.7167	6.428e2
768.7748	2.681e1
768.9227	4.204e2
769.1222	2.488e3
769.2394	3.733e1
769.3133	1.519e1
769.3770	1.390e1
769.6266	7.919e3
769.7682	1.314e1
769.8558	8.624e1
770.1309	5.150e3
770.3011	3.719e1
770.3741	6.876e1
770.4357	1.114e1
770.6276	2.107e3
770.7047	2.338e1
770.7749	2.110e1
771.1297	8.128e2
771.2460	3.095e1
771.3087	5.757e1
771.3842	7.367e1
771.5151	7.586e1
771.6371	3.065e2
771.7083	2.486e1
771.8458	2.186e1
771.9044	2.233e1
772.1118	9.760e3
772.2463	1.095e1
772.4459	8.933e3
772.5336	3.629e1
772.6249	2.381e1
772.7815	4.497e3
772.8854	5.290e1
772.9521	2.595e1
773.1125	2.195e3
773.2034	8.381e0
773.3177	2.681e1
773.3783	2.790e1
773.4531	7.549e2
773.6032	1.705e1
773.6654	4.852e1
773.7359	9.448e1
773.7836	2.008e2
773.8518	1.528e2
773.9287	2.384e2
774.1160	4.189e2
774.3350	3.034e2
774.5192	5.938e1
774.6180	2.514e2
774.7735	3.338e1
774.8563	1.967e1
774.9326	5.433e1
775.1188	2.695e2
775.3514	4.833e1
775.4493	1.616e2
775.5375	6.971e1
775.6086	6.652e1
775.7422	2.001e2
775.8747	2.871e1
775.9369	7.800e1
776.0460	1.705e1
776.1120	3.090e2
776.3587	1.220e2
776.4640	7.886e1
776.6076	1.952e2
776.7755	4.871e1
776.8701	1.224e2
776.9486	1.167e1
777.0494	5.586e1
777.1395	1.096e3
777.3323	9.346e3
777.5328	1.410e4
777.6225	1.256e3
777.7343	1.268e4
777.8162	3.750e2
777.9340	8.393e3
778.0331	6.452e1
778.1343	5.851e3
778.2620	2.829e1
778.3368	2.197e3
778.4562	1.465e2
778.5392	7.470e2
778.6283	5.147e2
778.7391	1.910e2
778.8664	1.857e1
778.9456	2.833e1
779.1062	5.155e3
779.2486	1.514e1
779.3585	5.143e1
779.4465	4.567e1
779.6191	5.786e1
779.8640	1.929e2
779.9454	1.505e1
780.1075	1.720e3
780.3080	5.095e1
780.3654	6.624e1
780.4596	3.786e1
780.6133	7.281e1
780.7391	7.252e1
780.7985	1.090e1
780.8595	1.433e1
780.9315	2.967e1
781.0994	4.860e2
781.2643	2.319e1
781.3403	2.038e1
781.6135	4.857e1
781.8544	7.043e1
781.9242	4.290e1
782.0989	4.298e2
782.3144	7.429e1
782.4838	1.555e2
782.6024	2.552e2
782.7164	9.343e1
782.8080	5.552e1
782.8624	3.219e1
782.9305	1.204e2
783.1388	2.080e3
783.2255	2.133e1
783.3073	7.105e1
783.3804	5.376e1
783.4801	1.792e3
783.5469	3.695e1
783.6166	4.443e2
783.8111	1.247e3
783.8828	2.141e2
783.9993	3.681e1
784.0483	2.090e1
784.1335	6.734e2
784.2073	3.790e1
784.4773	2.410e2
784.7233	1.361e2
784.8051	9.100e1
784.9326	3.177e2
785.0963	1.772e3
785.1813	2.400e1
785.3475	1.404e2
785.3819	7.167e1
785.5238	1.998e2
785.6250	1.412e2
785.7489	3.457e1
785.8018	3.148e1
785.9238	7.837e2
786.1161	1.500e3
786.2512	3.200e1
786.3256	8.767e2
786.3982	2.057e1
786.4410	3.829e1
786.5263	6.966e2
786.5909	6.181e1
786.6493	2.724e1
786.7321	4.407e2
786.8588	3.405e1
786.9277	2.030e2
787.0170	1.295e1
787.0968	3.770e2
787.2743	5.176e1
787.3322	9.824e1
787.4196	3.476e1
787.5255	5.552e1
787.6313	8.943e3
787.7161	3.660e2
787.8817	1.263e4
788.1302	1.049e4
788.3101	1.596e2
788.3836	4.587e3
788.4709	6.629e1
788.5236	1.416e2
788.6349	2.370e3
788.7111	6.462e1
788.8008	1.125e2
788.8837	9.542e2
789.1248	4.833e2
789.3837	1.539e2
789.4664	5.919e1
789.6361	4.767e1
789.8736	2.046e2
790.1089	7.688e2
790.3743	2.499e2
790.4747	1.451e3
790.5995	4.911e2
790.8085	1.599e3
790.8833	6.176e1
790.9650	1.567e1
791.1437	1.024e3
791.3831	5.514e1
791.4750	5.676e2
791.6067	5.795e1
791.7181	2.381e1
791.8099	2.685e2
791.8854	3.219e1
792.1108	2.091e2
792.3749	7.686e1
792.6337	8.138e1
792.7263	3.467e1
792.8999	5.100e1
793.0876	4.210e1
793.1342	1.067e2
793.1860	1.052e1
793.3133	2.500e1
793.4541	1.410e1
793.6232	3.084e2
793.8937	1.510e2
794.1071	8.079e2
794.1950	8.857e0
794.3821	9.695e1
794.6047	2.130e2
794.7983	2.067e1
794.8776	2.305e1
794.9391	2.133e1
795.0948	9.211e2
795.3945	2.729e1
795.4644	8.286e1
795.6001	6.381e1
795.8056	4.090e1
796.1202	2.237e2
796.3812	2.262e1
796.4817	1.526e2
796.5944	3.667e1
796.7822	3.678e2
796.9272	2.024e1
797.1335	3.510e2
797.3538	3.576e1
797.4597	2.071e2
797.6119	9.195e1
797.7909	1.303e2
797.8595	4.271e1
798.1077	6.086e1
798.3412	6.190e1
798.3984	1.786e1
798.5988	3.300e1
798.7868	4.062e1
798.8857	3.619e1
799.1055	1.810e2
799.4444	2.007e2
799.6082	3.333e1
799.7964	1.279e2
800.1169	1.241e2
800.6121	1.714e1
800.6896	2.095e1
800.8038	2.890e1
801.0275	1.886e1
801.1254	2.061e2
801.2466	3.286e1
801.3821	1.905e1
801.4824	2.167e1
801.6343	2.244e2
801.8522	1.690e1
802.1039	6.159e2
802.3682	1.699e2
802.4689	1.414e1
802.6063	3.054e2
802.6613	1.282e2
802.7858	2.119e1
802.8649	1.419e1
803.1083	2.635e2
803.1967	1.376e1
803.4186	1.619e1
803.6090	1.075e2
803.7917	1.080e2
803.8715	5.533e1
804.1263	2.767e2
804.3608	8.086e1
804.5524	1.471e1
804.6274	3.629e1
804.7931	9.320e2
804.9391	1.497e2
805.1313	7.684e2
805.3726	2.411e2
805.4605	8.239e2
805.6315	3.121e2
805.7900	2.837e2
805.8632	1.209e2
806.1253	3.403e2
806.3394	3.610e1
806.6404	4.559e2
806.8132	5.190e1
807.1431	5.099e2
807.3275	2.400e1
807.4644	2.000e1
807.6209	1.727e3
807.8751	1.904e3
808.0224	2.090e1
808.1243	1.324e3
808.2291	2.514e1
808.3764	8.390e2
808.6165	1.498e3
808.7930	2.776e1
808.8852	3.224e1
809.1240	1.675e3
809.3052	2.310e1
809.4649	1.271e3
809.6389	5.461e3
809.7990	2.743e3
809.8757	1.546e2
810.1362	6.578e3
810.2870	1.967e1
810.3768	2.380e2
810.4680	1.182e3
810.6411	2.250e3
810.7983	3.594e2
810.8763	1.559e2
811.1450	1.643e3
811.3792	7.186e1
811.4630	6.038e1
811.6428	5.231e2
811.7932	5.795e1
811.8705	1.425e2
812.1373	4.246e2
812.2317	1.529e1
812.2994	5.038e1
812.3678	5.467e1
812.4609	3.438e1
812.5673	1.548e1
812.6385	5.171e1
812.7927	5.224e1
812.8846	2.214e1
813.0107	1.595e1
813.1228	8.105e1
813.4881	7.700e1
813.6170	2.642e2
813.7194	2.905e1
813.8763	4.504e2
814.1292	6.610e2
814.3871	6.057e1
814.4427	5.629e1
814.6447	1.812e3
814.7346	2.057e1
814.8823	2.238e1
815.0134	1.910e1
815.0708	2.719e1
815.1430	1.354e3
815.3934	1.552e1
815.4689	2.386e2
815.6472	5.747e2
815.8036	1.260e2
815.8735	3.795e1
816.1558	3.813e2
816.4544	1.429e1
816.6620	7.162e1
816.7917	1.976e1
816.8953	2.878e2
817.1310	8.183e2
817.3956	1.200e2
817.4678	5.903e2
817.6373	5.824e3
817.7289	2.381e1
817.7971	2.577e2
817.8965	3.448e1
818.1352	4.016e3
818.2657	1.490e1
818.4529	1.724e2
818.6409	2.254e3
818.8038	7.581e1
819.1467	8.733e2
819.3890	1.409e2
819.4535	3.090e1
819.6482	2.360e2
819.8726	2.390e1
819.9336	1.976e1
820.0037	1.500e1
820.1349	5.967e1
820.2314	2.914e1
820.6431	2.729e1
821.1212	5.614e1
821.1798	1.057e1
821.3949	3.144e3
821.6444	4.286e3
821.7554	6.838e1
821.8943	3.475e3
822.1443	1.760e3
822.2642	3.843e1
822.3926	5.564e2
822.4682	1.410e1
822.6459	2.710e2
822.7670	3.143e1
822.8989	1.220e2
823.1378	2.737e2
823.4514	6.448e2
823.6403	7.690e1
823.7863	4.865e2
824.1214	1.887e2
824.3210	3.529e1
824.4489	6.081e1
824.6442	1.971e1
825.0330	1.433e1
825.1271	1.003e2
825.1788	1.956e2
825.4404	3.471e1
825.6537	6.538e1
825.7797	1.405e1
825.9085	5.795e1
826.1374	1.171e2
826.2006	6.271e1
826.4468	1.358e2
826.6465	9.957e1
826.7761	1.833e1
826.8621	2.710e1
827.1494	1.685e2
827.4724	1.405e1
827.6508	2.052e1
827.7021	5.076e1
827.8142	1.405e1
828.1378	7.757e1
828.4017	8.633e1
828.5101	3.129e1
828.6284	5.295e1
828.8487	4.905e1
829.1269	3.181e1
829.2044	2.610e1
829.5856	1.176e1
829.6412	2.143e1
829.8742	3.119e1
830.1243	1.887e2
830.2050	1.195e1
830.3740	1.077e2
830.6298	7.757e1
830.6982	1.176e1
830.8655	5.981e1
831.1133	3.543e1
831.1904	1.967e1
831.4534	4.488e2
831.5908	1.524e1
831.7833	5.358e2
831.8848	1.419e1
832.0385	1.248e1
832.1147	5.778e2
832.3836	2.367e2
832.4551	1.278e2
832.6370	1.976e2
832.7986	5.671e1
832.8803	6.190e1
832.9899	2.024e1
833.1179	1.393e2
833.3654	2.381e1
833.7744	1.548e1
833.9463	1.857e1
834.0665	1.419e1
834.1798	4.147e3
834.5961	2.914e1
834.8207	2.333e1
835.1812	1.487e3
835.4729	5.290e1
835.6115	3.052e1
835.7501	1.762e1
835.8115	8.271e1
835.8971	2.976e1
836.1257	2.789e2
836.1929	4.332e2
836.3840	5.276e1
836.4826	1.072e2
836.6193	1.277e2
836.7892	2.890e1
836.8729	2.167e1
837.1396	4.219e1
837.1965	1.580e2
837.3410	1.976e1
837.4573	6.967e1
837.6232	6.005e1
837.8034	5.019e1
838.1321	1.739e2
838.3637	3.338e1
838.6367	2.238e1
839.1309	5.255e2
839.3851	6.429e2
839.4556	1.292e2
839.6360	4.506e2
839.7244	4.357e1
839.7818	8.981e1
839.8854	3.409e2
840.1323	1.963e2
840.2099	1.752e1
840.3295	4.833e1
840.3721	4.110e1
840.4717	2.348e1
840.5626	1.990e1
840.6246	5.948e1
840.6818	1.005e1
840.7773	1.624e1
840.8337	1.790e1
840.8907	3.167e1
841.1542	8.310e1
841.3857	2.463e3
841.4870	1.605e1
841.6345	3.254e3
841.8055	2.311e3
841.8844	2.354e3
841.9486	5.290e1
842.1388	4.139e3
842.2148	7.105e1
842.3897	6.036e2
842.4698	1.197e3
842.6292	4.407e2
842.8068	6.170e2
842.8916	1.046e2
843.1432	4.806e2
843.3255	1.643e1
843.4802	7.252e1
843.6258	1.970e2
843.7967	1.322e2
843.8956	5.529e1
844.1380	3.081e2
844.3820	3.590e1
844.4698	8.029e1
844.7969	1.239e2
844.8811	5.567e1
845.1377	7.633e1
845.4692	5.143e1
845.6211	1.378e2
845.8896	3.738e1
846.1356	1.475e2
846.6272	1.063e3
846.8811	2.333e1
847.1273	6.207e2
847.5429	1.190e1
847.6367	2.648e2
847.8144	2.843e2
847.9237	2.905e1
848.1480	3.643e2
848.4809	1.948e2
848.6165	2.178e2
849.1391	1.781e2
849.6378	1.815e2
849.8072	1.461e3
849.8817	1.410e2
849.9556	7.333e0
850.1357	2.796e3
850.2225	4.462e1
850.3760	6.771e1
850.4803	9.490e2
850.6254	6.317e2
850.8146	5.007e2
851.1324	1.161e3
851.2130	6.895e1
851.4168	1.652e1
851.4801	1.541e2
851.5443	3.519e1
851.6284	3.813e2
851.8216	9.176e1
851.9218	1.719e1
852.1390	1.678e2
852.1875	1.202e2
852.3635	3.795e1
852.6500	2.041e2
853.1497	1.018e2
853.6688	8.976e1
853.8145	1.667e1
854.1293	3.822e2
854.3930	2.343e1
854.4528	1.010e1
854.6255	1.199e3
854.8027	4.767e1
854.9062	4.048e1
855.1305	9.082e2
855.6345	2.592e2
855.8195	6.752e1
856.1381	2.867e2
856.3817	2.148e1
856.4200	3.419e1
856.4800	1.053e2
856.6656	3.695e1
856.8002	7.752e1
857.1413	4.038e1
857.3610	2.586e1
857.4702	5.895e1
857.6230	1.206e4
857.7115	4.890e1
857.8054	3.743e1
857.8831	3.552e1
857.9742	2.948e1
858.1224	8.548e3
858.2144	4.843e1
858.4716	3.500e1
858.6265	4.557e3
858.8377	4.052e1
858.9100	1.157e1
858.9915	1.510e1
859.1260	1.705e3
859.2087	1.124e1
859.6313	4.849e2
859.8945	3.305e1
860.1336	1.180e2
860.4446	1.957e1
860.6728	5.157e1
860.8816	2.262e1
861.0546	1.271e1
861.1187	3.381e1
861.1777	1.190e1
861.3883	2.000e1
861.4996	1.619e1
861.6267	2.405e1
861.8707	1.952e1
862.1459	8.386e1
862.3782	3.738e1
862.4714	2.919e1
862.6320	3.529e1
862.7658	1.529e1
862.8349	5.619e1
863.1292	1.224e2
863.5137	1.643e1
863.6444	3.974e2
863.7086	1.024e1
863.8163	2.552e1
863.8929	6.913e2
863.9669	1.200e1
864.1485	4.443e2
864.3860	1.522e2
864.4438	8.010e1
864.5151	4.010e1
864.6498	1.257e2
864.8975	9.333e1
865.0493	1.395e1
865.1666	6.545e2
865.2919	1.557e1
865.6660	5.551e2
865.8943	2.775e2
866.0355	1.514e1
866.1547	9.228e2
866.4008	4.428e2
866.6487	5.210e2
866.9091	1.670e2
867.1491	2.072e2
867.2206	2.671e1
867.6172	4.814e1
867.8860	1.738e1
868.1284	5.595e1
868.1812	1.981e1
868.3284	1.952e1
868.4642	2.189e3
868.6343	2.690e1
868.7971	2.317e3
868.9191	3.281e1
869.1306	1.726e3
869.2408	3.105e1
869.4681	6.716e2
869.6633	1.459e2
869.8003	3.610e2
869.9556	2.119e1
870.1334	1.606e2
870.4615	2.919e1
870.6499	4.305e1
870.8012	1.910e1
870.8657	2.671e1
870.9832	4.271e1
871.1158	1.001e2
871.2068	1.390e1
871.4365	2.190e1
871.6110	4.595e1
871.8984	6.533e1
871.9889	1.852e1
872.1511	1.086e2
872.4119	7.048e1
872.6182	3.900e1
872.9092	1.105e2
873.1613	4.424e2
873.4398	3.105e1
873.4767	4.814e1
873.6558	1.950e2
873.8355	4.648e1
874.0644	5.524e1
874.1698	9.285e3
874.2532	5.848e1
874.3920	2.262e1
874.4594	8.471e1
874.6695	6.882e3
874.8416	6.048e1
874.9119	3.129e1
874.9766	1.110e1
875.0153	2.967e1
875.0508	3.971e1
875.1718	3.180e3
875.3429	1.629e1
875.4751	1.752e1
875.6733	9.733e2
876.1009	2.248e1
876.1703	3.288e2
876.2449	2.219e1
876.3698	3.386e1
876.4661	1.073e3
876.6638	1.316e2
876.7983	1.794e3
877.1399	1.324e3
877.4644	4.696e2
877.6517	1.168e2
877.7435	6.143e0
877.8081	1.567e2
878.1246	9.167e1
878.1895	7.119e1
878.3399	1.500e1
878.4971	1.629e1
878.6512	7.062e1
878.8026	4.714e1
879.1625	9.533e1
879.3618	1.405e1
879.4758	1.943e1
879.6192	4.933e1
880.1219	4.333e1
880.1779	1.138e1
880.6341	1.405e1
880.7798	1.548e1
881.1215	7.748e1
881.6118	2.067e1
881.8633	1.952e1
882.1655	3.157e2
882.4675	5.943e1
882.6093	4.119e1
882.6774	2.045e2
882.8123	1.881e1
883.1531	1.440e2
883.4784	2.071e1
883.5606	1.386e1
883.6644	1.383e2
883.7976	3.729e1
883.8716	3.476e1
884.1475	1.025e2
884.3787	1.405e1
884.6687	5.376e1
884.8547	1.881e1
885.1644	2.116e3
885.3902	1.629e1
885.6711	1.244e3
885.9017	4.414e1
886.1686	6.686e2
886.3934	1.194e2
886.6487	5.092e2
886.8251	1.225e3
886.9030	2.267e1
887.1604	1.667e3
887.2412	3.010e1
887.4934	1.105e3
887.6418	3.700e1
887.7346	2.414e1
887.8278	3.730e2
888.1555	3.252e2
888.3936	3.219e1
888.4814	5.905e1
888.6462	1.005e2
888.8161	1.643e1
889.1218	3.448e1
889.1844	1.905e1
889.6067	2.929e1
889.7236	2.819e1
890.0721	3.471e1
890.1497	1.962e2
890.5185	1.410e1
890.6458	1.548e1
890.7786	4.876e1
890.8271	2.814e1
891.1472	1.864e2
891.2832	2.048e1
891.3743	1.595e1
891.6553	1.823e2
891.8257	8.400e1
891.8657	1.795e1
891.9114	7.595e1
892.1326	1.336e2
892.2180	1.552e1
892.2831	1.343e1
892.4032	8.857e1
892.5050	7.476e0
892.5582	4.562e1
892.6439	1.490e2
892.8294	1.158e3
892.9633	1.581e1
893.1613	1.107e3
893.2754	1.948e1
893.4969	6.447e2
893.6456	5.314e1
893.8310	3.793e2
894.1044	2.933e1
894.1708	3.474e2
894.4111	2.714e1
894.5181	2.310e1
894.6273	1.252e2
894.6985	1.629e1
894.8428	3.062e1
895.0312	1.586e1
895.1035	4.319e1
895.1641	1.780e2
895.3910	4.071e1
895.4886	6.943e1
895.6357	2.738e1
895.8160	1.642e2
895.8764	3.490e1
896.1367	1.314e2
896.4739	1.724e2
896.6645	3.686e1
896.8096	2.786e1
896.8872	2.424e1
897.1446	8.162e1
897.3787	1.057e1
897.4304	3.671e1
897.6470	5.097e2
897.9066	1.018e2
898.1313	3.206e2
898.6225	1.405e2
899.1377	1.981e2
899.4558	2.505e1
899.6630	4.205e2
899.9142	3.285e2
900.1564	3.750e2
900.4083	1.453e2
900.6506	1.235e2
900.8325	3.343e1
900.8953	5.400e1
901.1409	6.892e2
901.4753	7.141e2
901.5442	4.214e1
901.8116	3.735e2
901.9353	1.619e1
902.1428	2.231e2
902.3066	2.214e1
902.3986	2.643e1
902.4913	9.438e1
902.6461	3.476e1
902.8299	2.024e1
902.9162	1.971e1
903.1458	1.188e2
903.4261	5.829e1
903.8857	2.548e1
903.9672	1.929e1
904.1530	6.319e1
904.4195	1.762e1
904.5581	2.176e1
904.6355	5.533e1
904.8856	1.424e1
905.1450	7.278e2
906.0730	1.338e1
906.1463	1.844e2
906.4747	1.424e1
906.6441	1.533e3
906.8135	7.824e1
906.8765	1.067e1
907.1472	1.046e3
907.3970	1.924e1
907.4835	2.952e1
907.6392	4.853e2
907.8170	1.619e1
908.1528	2.846e2
908.4957	2.452e1
908.6003	1.319e1
908.6793	3.010e1
908.8777	4.271e1
908.9418	2.305e1
909.1494	4.768e2
909.4788	2.363e2
909.6528	3.248e2
909.8156	3.245e2
910.1634	3.612e2
910.2643	1.276e1
910.3643	1.524e1
910.4764	4.262e1
910.6403	1.308e2
910.7882	3.190e1
910.8786	2.071e1
911.1487	7.171e1
911.2773	1.524e1
911.3748	2.000e1
911.6539	1.145e2
911.8937	1.667e1
912.1467	1.379e2
912.4965	2.833e1
912.9087	1.976e1
913.1448	3.143e3
913.4780	5.428e2
913.6442	2.065e3
913.7289	2.871e1
913.8141	4.909e2
914.0363	2.957e1
914.1530	1.263e4
914.4810	1.695e2
914.6520	5.403e3
914.8235	6.376e1
914.9757	1.500e1
915.1530	3.970e3
915.6516	7.309e2
915.8322	1.410e1
916.1537	7.108e2
916.4034	1.948e1
916.4965	1.848e1
916.6651	1.410e1
916.8386	1.410e1
916.9825	1.410e1
917.1639	1.832e2
917.6524	3.054e2
918.1508	1.665e2
918.4924	8.533e1
918.6539	1.742e2
918.8199	1.450e2
918.9675	1.410e1
919.1520	2.359e2
919.4891	4.357e2
919.6581	1.650e2
919.8088	2.448e2
919.8875	2.978e2
920.0772	2.810e0
920.1503	6.529e2
920.3980	1.146e2
920.4894	8.519e1
920.6629	1.405e1
920.8193	1.443e1
920.8817	2.471e1
921.1415	1.234e2
921.3808	1.586e1
921.4918	1.084e2
921.8222	5.667e1
922.1452	3.802e2
922.4797	1.122e2
922.6509	1.870e2
922.8254	1.168e2
923.1470	1.508e2
923.2264	1.986e1
923.4664	3.524e1
923.6605	1.405e1
924.1611	1.771e2
924.4724	3.257e1
924.6106	1.857e1
924.8019	6.124e1
925.1519	9.010e2
925.4879	2.824e1
925.6568	6.260e2
926.1495	1.961e2
926.6356	2.981e2
926.7825	1.405e1
927.1290	2.345e2
927.4124	2.410e1
927.5911	2.181e1
927.6569	1.023e2
927.7978	2.426e2
928.1261	2.133e2
928.3978	1.200e1
928.4682	5.738e1
928.6133	1.833e1
928.8115	4.157e1
929.1215	6.548e1
929.1681	1.263e2
929.4571	2.810e1
930.1638	1.608e2
930.5099	2.819e1
930.8824	1.405e1
931.1052	5.433e1
931.6479	5.714e1
931.8283	2.762e1
931.9285	1.400e1
932.1661	2.762e1
932.4796	1.162e1
932.5524	4.433e1
933.1586	1.095e2
933.6787	2.143e1
933.7850	1.714e1
934.0759	1.043e1
934.1685	1.867e2
934.3252	1.548e1
934.4960	2.838e1
934.6231	1.662e2
935.1067	1.153e2
935.1824	5.214e1
935.6154	1.001e2
935.8004	3.910e1
935.8961	1.738e1
936.1378	4.370e2
936.3958	4.733e1
936.4736	4.443e1
936.5988	3.005e1
936.6635	2.095e1
937.1408	8.867e1
937.2300	4.595e1
937.3624	1.848e1
938.1392	1.341e2
938.2480	1.376e1
938.4044	1.448e2
938.6529	1.328e2
938.7319	1.333e1
938.9160	6.429e1
939.1293	9.895e1
939.6370	7.214e1
939.6956	1.276e1
940.1400	7.829e1
940.4243	5.076e1
940.4882	5.624e1
940.6331	6.376e1
940.8073	2.157e1
940.9006	1.220e2
941.1453	9.781e1
941.4151	5.019e1
941.4820	1.643e1
941.6331	2.576e1
941.6782	1.110e1
941.8399	1.976e1
942.0938	1.919e1
942.1672	8.371e1
942.6541	1.410e1
942.9361	3.448e1
943.0995	8.810e0
943.1577	5.224e1
943.6677	1.476e1
944.1689	5.505e1
944.6420	3.895e1
945.0797	1.176e1
945.1593	3.005e1
945.5892	1.619e1
945.6654	4.248e1
945.8085	1.571e1
946.0050	1.429e1
946.1601	2.559e3
946.3085	1.429e1
946.4945	3.038e3
946.6257	3.942e2
946.8257	2.202e3
946.8992	5.438e1
947.1606	1.304e3
947.2353	1.581e1
947.4956	1.810e2
947.6382	1.260e2
947.8278	1.244e2
948.0219	2.229e1
948.0679	2.281e1
948.1362	9.695e1
948.1765	1.625e2
948.6342	3.329e1
948.8300	1.857e1
949.1466	7.905e1
949.5061	2.452e1
949.6161	1.529e1
949.6958	1.595e1
950.0004	1.395e1
950.0846	1.452e1
950.2056	1.410e1
950.5107	2.310e1
950.6772	1.619e1
950.8041	1.952e1
951.1701	1.571e1
951.2781	3.000e1
951.4924	3.081e1
951.7843	8.524e0
951.8365	4.100e1
951.9052	1.562e1
952.1378	5.848e1
952.4706	1.595e1
952.8416	4.881e1
953.1478	2.142e2
953.6457	1.715e2
953.9810	1.714e1
954.0862	1.576e1
954.1591	2.885e2
954.4818	3.310e1
954.6587	1.857e1
954.8434	3.281e1
955.1564	1.358e2
955.4683	3.105e1
955.6501	1.533e1
955.7929	3.514e1
956.0809	3.319e1
956.7916	2.333e1
957.0873	4.752e1
957.1324	9.519e1
957.6504	7.381e1
957.8542	2.524e1
958.1740	1.197e2
958.2091	4.290e1
958.4660	3.433e1
958.6664	2.424e2
958.8209	1.952e1
959.1624	2.164e2
959.2297	1.852e1
959.6484	1.524e1
959.8112	1.424e1
960.1089	1.429e1
960.4645	4.486e1
960.8474	1.667e1
961.1859	4.952e1
961.3926	2.343e1
961.4432	8.952e0
961.5039	3.038e1
961.6075	2.000e1
962.1630	6.217e3
962.2523	2.962e1
962.3452	1.829e1
962.4890	1.833e1
962.6638	4.088e3
962.9031	1.952e1
963.1674	2.303e3
963.2760	5.000e1
963.6719	1.031e3
964.1635	4.320e2
964.5001	1.643e1
964.6655	8.076e1
964.9840	1.410e1
965.1595	1.211e2
965.6440	4.114e1
965.7079	1.967e1
966.1539	9.386e1
966.6740	5.673e2
967.1790	4.481e2
967.3055	1.410e1
967.6654	3.515e2
968.1693	1.329e2
968.2266	3.090e1
968.2933	1.762e1
968.4779	3.619e1
968.5745	1.281e1
968.6735	1.142e2
968.8200	5.062e1
969.1800	3.305e1
969.7902	2.238e1
970.1014	2.190e1
970.1728	5.114e1
970.4649	3.462e1
970.8130	1.524e1
971.1639	2.014e2
971.6870	6.671e1
971.7906	1.881e1
971.9176	1.410e1
972.1654	4.119e1
972.6960	1.571e1
972.8193	6.924e2
973.1516	7.943e2
973.4816	3.983e2
973.8273	3.371e2
974.1696	2.194e3
974.3055	1.571e1
974.4638	1.405e1
974.6721	1.931e3
974.8117	2.838e1
975.1683	1.179e3
975.6611	4.458e2
975.8176	3.200e1
976.1890	9.190e1
976.4471	1.571e1
976.6154	3.048e1
976.8158	1.762e1
977.1624	3.338e1
977.6542	1.381e1
977.7104	4.671e1
977.8159	1.490e2
978.1565	1.957e2
978.4874	5.362e1
978.8168	5.552e1
979.1202	1.619e1
979.1891	1.581e1
979.5192	1.533e1
979.7390	2.467e1
980.1259	3.138e1
980.1959	1.633e1
980.5378	1.405e1
980.6658	3.257e1
980.7998	2.148e1
981.1370	1.212e2
981.4794	1.833e1
981.6444	3.662e1
982.1254	5.010e1
982.2112	4.667e1
983.5970	1.629e1
983.6615	1.429e1
984.2534	1.752e1
984.5988	2.257e1
984.6762	1.305e1
985.1649	4.310e1
986.1321	1.424e1
986.6628	1.833e1
987.1401	1.619e1
987.6424	3.671e1
988.1737	2.261e2
988.5018	3.786e1
988.6375	1.405e1
988.8271	1.943e1
989.1061	1.629e1
989.1822	7.176e1
989.5195	2.048e1
990.1544	1.524e1
990.5175	2.367e1
991.1855	3.792e2
991.5167	4.852e2
991.8475	3.818e2
992.1654	8.586e1
992.5191	6.343e1
992.8547	5.743e1
993.1667	3.219e1
993.6347	4.662e1
994.1671	4.043e2
994.3560	1.405e1
994.5208	2.416e2
994.6555	1.629e1
994.8475	2.224e2
995.0160	1.619e1
995.1058	1.300e1
995.1872	8.795e1
995.4747	1.495e1
995.5464	5.162e1
995.6250	3.281e1
996.1609	7.014e1
996.5162	5.062e1
996.6338	1.429e1
997.1526	1.619e1
997.2642	1.405e1
997.6642	1.405e1
998.1381	1.881e1
998.6496	2.267e2
998.8489	1.629e1
999.1368	1.319e2
999.2321	1.500e1
999.6644	1.673e2
999.8253	1.929e1
1000.0900	1.081e1
1000.1760	8.567e1
1001.0912	2.948e1
1001.1599	8.410e1
1001.2539	1.286e1
1001.6672	2.000e1
1002.1445	4.122e3
1002.4128	1.519e1
1002.6453	4.094e3
1002.7641	2.271e1
1003.1542	2.275e3
1003.6503	6.026e2
1003.8135	1.881e1
1004.1628	3.922e2
1004.6716	9.000e1
1005.1444	1.424e1
1005.2003	5.824e1
1005.4891	1.196e2
1005.7012	1.500e1
1005.8134	1.259e2
1006.1838	1.283e2
1006.4961	3.048e1
1006.6530	3.207e2
1006.8294	2.381e1
1007.1521	3.550e2
1007.6588	2.836e2
1008.1530	8.543e1
1008.6852	4.586e1
1009.1924	1.290e2
1009.7130	1.429e1
1010.0163	1.533e1
1010.1242	1.533e1
1010.1950	2.710e1
1010.3099	1.424e1
1010.5120	3.857e1
1011.1606	7.433e1
1011.6454	8.352e1
1012.1883	9.155e2
1012.4722	2.024e1
1012.5759	1.595e1
1012.8157	2.119e1
1013.2048	4.157e2
1013.8199	4.505e1
1014.1511	7.788e2
1014.3963	1.533e1
1014.6572	4.289e2
1014.8192	2.143e1
1015.1636	2.768e2
1015.2505	2.343e1
1015.4935	1.643e1
1015.6599	1.343e2
1016.0967	2.143e1
1016.1570	6.586e1
1017.1516	4.424e1
1017.8387	7.957e1
1018.1834	2.195e2
1018.4938	7.505e1
1018.8273	7.214e1
1018.8861	2.281e1
1019.1092	1.738e1
1019.1812	3.263e2
1019.5286	1.714e1
1020.1934	2.624e2
1020.6854	7.448e1
1020.8468	6.876e1
1021.1841	4.839e2
1021.4974	3.143e1
1021.6359	1.414e1
1021.7097	4.886e1
1022.1849	1.044e2
1022.4974	1.500e1
1022.7964	1.410e1
1023.1671	9.490e1
1023.4974	9.343e1
1023.7036	2.000e1
1023.8682	3.595e1
1024.2078	1.410e1
1024.5076	2.500e1
1024.7162	1.452e1
1024.8357	2.000e1
1025.6479	1.410e1
1026.0256	1.410e1
1026.1794	1.405e1
1026.6503	1.810e1
1026.7924	2.238e1
1027.1260	1.324e1
1027.2118	8.705e1
1027.5372	1.410e1
1027.6522	3.148e1
1028.1946	1.547e2
1028.2625	2.876e1
1029.1996	7.295e1
1029.4282	1.410e1
1029.6915	1.563e3
1029.8353	1.295e1
1030.1940	1.362e3
1030.4823	1.800e1
1030.5466	2.429e1
1030.6957	1.849e3
1030.7850	1.129e1
1031.2054	9.420e2
1031.4111	3.286e1
1031.7064	3.644e2
1031.8395	1.833e1
1032.2046	1.197e2
1032.7355	6.095e1
1033.2118	2.952e1
1034.1989	4.490e2
1034.2797	7.857e0
1034.6946	1.103e2
1035.1887	1.108e2
1035.6248	2.348e1
1035.6874	1.167e1
1036.2023	8.219e1
1037.2288	1.405e1
1037.3593	1.619e1
1037.4858	1.619e1
1037.9373	1.505e1
1038.2031	3.648e1
1038.7031	7.238e1
1039.2042	1.373e2
1039.3427	1.405e1
1039.6913	7.110e1
1040.1968	1.216e2
1040.6627	3.305e1
1040.7285	1.762e1
1041.1987	3.024e1
1042.1604	7.924e1
1042.6514	4.310e1
1042.8870	1.533e1
1043.0983	1.405e1
1043.2004	5.967e1
1043.6818	1.138e2
1043.8605	1.971e1
1044.1716	1.629e1
1045.1584	1.424e1
1045.5051	1.405e1
1045.7169	1.405e1
1046.2538	1.405e1
1046.6619	2.262e1
1047.5455	2.024e1
1047.6323	1.381e1
1048.1984	4.076e1
1048.6766	2.300e1
1049.6868	1.405e1
1050.4105	4.876e1
1050.4539	1.676e1
1050.5342	9.410e1
1050.8605	1.020e2
1051.0559	3.433e1
1051.1703	5.480e2
1051.3517	2.095e1
1051.5135	3.010e1
1051.6655	3.124e2
1051.7646	2.762e1
1051.8484	1.881e1
1052.1689	2.794e2
1052.6492	6.081e1
1052.6998	5.267e1
1053.1521	2.833e1
1053.5126	2.976e1
1054.1416	6.967e1
1054.5035	1.405e1
1054.6924	5.962e1
1055.1660	1.957e1
1055.5311	3.676e1
1055.6827	6.186e1
1056.1920	7.643e1
1057.1603	1.167e1
1057.1971	3.152e1
1057.6631	2.262e1
1058.1340	1.424e1
1058.4956	1.571e1
1058.6774	1.410e1
1058.8607	2.071e1
1059.3312	1.410e1
1059.9181	1.905e1
1061.1824	4.924e1
1061.7065	1.410e1
1062.1854	2.000e1
1062.6971	3.286e1
1063.1594	1.320e2
1063.6747	1.142e2
1064.1604	6.776e1
1064.7271	4.086e1
1065.7207	1.857e1
1066.1312	3.405e1
1066.4279	2.667e1
1068.1628	3.091e2
1069.1572	1.762e2
1069.6763	1.280e3
1069.8334	1.543e1
1070.0514	1.552e1
1070.1738	1.111e3
1070.6799	8.564e2
1071.1852	8.171e2
1071.6879	2.411e2
1071.7523	4.643e1
1072.1853	1.021e2
1072.3856	4.000e1
1072.6857	5.929e1
1073.2034	1.424e1
1074.1666	7.129e1
1074.6959	6.414e1
1074.8800	2.119e1
1075.1913	1.165e2
1076.1884	1.643e1
1076.2941	3.786e1
1077.2258	2.119e1
1077.5292	2.724e1
1077.7118	1.410e1
1077.8313	3.710e1
1077.9756	1.533e1
1078.6888	1.051e2
1079.2048	7.800e1
1079.6825	4.162e1
1080.1775	6.395e1
1080.4858	1.424e1
1080.6656	2.876e1
1081.0807	1.771e1
1081.1570	3.767e1
1081.7018	1.629e1
1081.8796	2.262e1
1082.5978	1.452e1
1083.0577	1.314e1
1083.1750	2.315e2
1083.6132	1.629e1
1083.7620	1.667e1
1084.1663	9.190e1
1084.6697	1.595e1
1085.1655	3.390e1
1085.4879	1.429e1
1086.1499	1.429e1
1086.7118	2.357e1
1088.1638	1.519e1
1088.6366	1.405e1
1089.6597	1.524e1
1090.1975	4.376e1
1090.6694	2.586e1
1091.1656	1.533e1
1091.6454	3.010e1
1092.1630	6.141e2
1092.5315	2.695e1
1092.6304	1.381e1
1092.8616	1.294e2
1093.1791	2.277e2
1093.5284	4.229e1
1094.1637	8.929e1
1095.2092	1.533e1
1095.5463	6.633e1
1095.6787	1.619e1
1095.8573	1.050e2
1095.9440	1.467e1
1096.1895	1.507e2
1096.5321	3.243e1
1096.6818	1.424e1
1097.1864	3.243e1
1098.1520	2.990e2
1098.6857	1.500e1
1099.1434	2.886e2
1099.2241	1.710e1
1100.1655	8.233e1
1100.6934	1.862e1
1101.1619	7.429e1
1101.6421	1.405e1
1102.1857	9.290e1
1103.1088	1.776e1
1103.1862	4.386e1
1103.7010	2.695e1
1103.7781	3.129e1
1104.1874	5.886e1
1104.6584	1.619e1
1106.1221	1.619e1
1107.1637	1.455e2
1107.5183	1.405e1
1108.1493	1.333e2
1108.2258	3.071e1
1108.7086	1.410e1
1109.1443	4.076e1
1109.2247	3.190e1
1109.5488	1.548e1
1109.6787	1.103e2
1109.8693	1.976e1
1109.9760	1.410e1
1110.2017	4.043e1
1110.5240	4.614e1
1110.6917	8.757e1
1111.1991	1.010e2
1111.6356	1.405e1
1112.1414	2.814e1
1112.6864	1.857e1
1113.6750	1.724e1
1114.1533	4.062e2
1114.2509	9.286e0
1115.1113	6.790e1
1115.1821	1.375e2
1115.7020	1.738e1
1116.1569	1.174e2
1116.4368	1.976e1
1117.0343	1.643e1
1117.1615	1.410e1
1118.6906	1.867e3
1118.8212	2.243e1
1119.1965	1.487e3
1119.5042	1.619e1
1119.7051	7.355e2
1120.2014	4.106e2
1120.7135	9.743e1
1120.8772	2.524e1
1121.1010	1.571e1
1121.3961	1.524e1
1121.7120	1.619e1
1122.1714	1.154e2
1122.5203	3.119e1
1122.6392	1.424e1
1122.8718	1.424e1
1123.1031	1.257e1
1123.2000	1.346e2
1123.2751	1.776e1
1123.6851	1.507e2
1123.7582	1.814e1
1124.2284	5.852e1
1124.5896	2.024e1
1124.7061	3.500e1
1125.2229	1.014e1
1126.1736	2.781e1
1126.6678	1.690e1
1127.6113	2.119e1
1128.1924	1.429e1
1128.4397	2.024e1
1129.2363	1.007e2
1129.4265	1.643e1
1130.2571	4.500e1
1130.6932	1.643e1
1131.1729	2.000e1
1131.4941	1.424e1
1131.6874	1.533e1
1132.2163	2.024e1
1132.5516	1.524e1
1134.6801	2.857e1
1136.2069	2.748e1
1138.1147	2.929e1
1138.2490	5.120e2
1139.2480	2.556e2
1140.2460	4.600e1
1141.2817	1.452e1
1142.2462	1.429e1
1143.2522	1.595e1
1144.7657	1.833e1
1145.2008	4.167e1
1146.2653	2.867e1
1147.2462	8.523e2
1148.0686	2.119e1
1148.2474	4.110e2
1149.1509	3.010e1
1149.2458	7.748e1
1149.3198	8.524e0
1150.1919	2.738e1
1151.2146	1.429e1
1151.7766	2.476e1
1152.1919	5.614e1
1152.5374	1.833e1
1153.2078	1.629e1
1153.6920	1.405e1
1154.1305	1.429e1
1155.2502	1.714e1
1157.2437	3.010e1
1158.1915	2.114e1
1158.2361	2.638e1
1158.6837	5.595e2
1158.8204	1.348e1
1159.1825	4.091e2
1159.5040	1.519e1
1159.6843	2.093e2
1159.7528	1.443e1
1160.0751	1.029e1
1160.1787	1.139e2
1160.3169	1.500e1
1160.5713	2.662e1
1160.6653	1.324e1
1161.1716	2.714e1
1162.2770	1.457e1
1162.3491	1.895e1
1163.1681	4.057e1
1163.6779	3.786e1
1164.2015	5.505e1
1164.9617	1.943e1
1166.2090	1.429e1
1166.7205	3.543e1
1167.2426	1.519e1
1169.2588	1.410e1
1170.4189	2.643e1
1170.6902	3.038e1
1172.2778	1.405e1
1174.2137	3.152e2
1174.7184	1.622e2
1175.2216	1.850e2
1175.5934	1.476e1
1175.7244	8.533e1
1176.2310	6.400e1
1177.7278	1.524e1
1178.1053	1.571e1
1178.7345	3.010e1
1179.1039	1.367e1
1179.1970	1.429e1
1179.7611	2.238e1
1180.1683	1.424e1
1180.3127	1.619e1
1180.9222	1.410e1
1181.0216	2.229e1
1181.2094	1.810e1
1182.1833	2.819e1
1184.1630	1.424e1
1184.3510	1.881e1
1185.2045	2.995e1
1186.2118	5.332e2
1186.7255	4.803e2
1186.8164	2.752e1
1187.2065	4.220e2
1187.3138	1.067e1
1187.7252	1.126e2
1188.2262	4.724e1
1188.7344	1.571e1
1189.1732	1.424e1
1190.1592	1.057e1
1190.2333	2.090e1
1192.2764	1.424e1
1193.1699	1.595e1
1194.1011	2.848e1
1195.7010	3.095e1
1195.7408	1.219e1
1196.7225	2.724e1
1197.1829	1.424e1
1198.2211	2.048e1
1203.1528	1.581e1
1203.2203	1.106e2
1204.2089	1.595e1
1205.2286	3.281e1
1205.4751	1.410e1
1207.2393	1.519e1
1207.6859	1.667e1
1208.1792	4.748e1
1208.7225	1.410e1
1209.1959	1.195e2
1209.3451	1.405e1
1209.6914	2.071e1
1210.1946	4.462e1
1211.2120	3.238e1
1211.5403	2.000e1
1212.2135	3.376e1
1214.1852	8.300e1
1214.7028	8.367e1
1215.2097	1.931e2
1215.7015	1.663e2
1216.1117	1.500e1
1216.2269	3.324e1
1216.7141	1.862e1
1217.1819	3.010e1
1218.2056	1.243e2
1219.2209	7.167e1
1219.7034	1.619e1
1220.1998	5.590e1
1221.0786	1.505e1
1222.1954	1.405e1
1222.5664	2.067e1
1223.1906	1.505e1
1224.1289	1.957e1
1224.2754	1.505e1
1225.0072	2.952e1
1225.1992	1.444e2
1226.1974	7.505e1
1226.6753	6.257e1
1226.7346	3.214e1
1227.2102	6.189e2
1227.6448	1.448e1
1227.7386	5.286e1
1228.2142	1.563e2
1228.3538	1.405e1
1229.2213	1.465e2
1230.2119	4.162e1
1232.1896	2.838e1
1232.2772	1.333e1
1234.2097	1.028e2
1235.2520	1.405e1
1236.2234	1.667e1
1237.2634	1.410e1
1237.6416	2.505e1
1238.2704	1.595e1
1244.2311	1.286e1
1244.3036	2.276e1
1245.6932	1.424e1
1248.2616	1.643e1
1248.8700	3.776e1
1249.2124	5.790e1
1250.2012	1.714e1
1251.2490	1.429e1
1252.1985	1.548e1
1253.2119	1.424e1
1253.4049	3.667e1
1258.2546	1.929e1
1258.4877	1.643e1
1259.2872	2.452e1
1261.1542	1.524e1
1261.6882	1.690e1
1263.2051	6.657e1
1263.2512	6.781e1
1263.6573	2.205e1
1263.7394	7.024e1
1264.2064	8.652e1
1264.7201	4.110e1
1267.1732	1.067e1
1267.2272	2.643e1
1267.3057	1.229e1
1267.5690	1.629e1
1269.4327	1.738e1
1270.1672	3.038e1
1270.6006	3.243e1
1272.9370	1.619e1
1275.2103	8.338e1
1275.7244	1.223e2
1276.0715	2.694e2
1276.2194	6.348e1
1276.3232	2.210e2
1276.5508	3.571e1
1277.1833	1.548e1
1277.4176	1.548e1
1277.5317	1.043e2
1277.7266	3.098e2
1277.8634	1.267e2
1278.0305	2.693e2
1279.4949	2.400e1
1279.5667	3.152e1
1279.6421	4.086e1
1279.7527	5.124e1
1279.8296	2.857e1
1279.9191	7.076e1
1280.0388	8.214e1
1280.1429	2.167e1
1281.3077	1.700e1
1281.3770	1.019e1
1281.4491	2.981e1
1281.6095	3.024e1
1282.9475	1.971e1
1283.2474	2.700e1
1283.4852	1.410e1
1283.6302	2.048e1
1283.7701	1.405e1
1283.8984	1.943e1
1285.1764	1.505e1
1289.1488	1.952e1
1301.2500	6.862e1
1301.4111	1.452e1
1302.2400	8.562e1
1302.3267	2.186e1
1303.2385	3.405e1
1304.4282	1.410e1
1306.1907	4.362e1
1307.2356	3.423e2
1307.7429	1.410e1
1308.0686	1.690e1
1308.2367	1.868e2
1309.2244	1.424e1
1310.2810	1.533e1
1316.2261	7.910e1
1316.2736	1.246e2
1317.2733	6.967e1
1318.2646	7.957e1
1320.2135	1.424e1
1323.2003	7.414e1
1324.2390	3.171e1
1324.3264	1.305e1
1324.7267	1.690e1
1325.2167	3.310e1
1325.3082	1.295e1
1325.7732	1.524e1
1326.0951	1.476e1
1326.2743	1.524e1
1327.0061	1.410e1
1327.0847	2.452e1
1327.2317	3.133e1
1330.7300	1.500e1
1331.2540	1.062e2
1331.7489	3.000e1
1332.2562	7.890e1
1334.2654	1.429e1
1334.8810	1.952e1
1335.7756	1.524e1
1336.1111	1.405e1
1337.6283	1.405e1
1338.8022	3.548e1
1340.2489	2.805e1
1340.8192	1.505e1
1341.0706	1.429e1
1341.3751	1.976e1
1343.2731	1.405e1
1344.2394	1.429e1
1347.2721	7.524e1
1348.2444	2.871e1
1348.5442	2.148e1
1352.1755	1.524e1
1364.5963	1.452e1
1365.1881	1.410e1
1365.7285	1.857e1
1365.8994	2.162e1
1370.7603	1.519e1
1378.2421	1.476e1
1381.1843	3.119e1
1381.2396	5.686e1
1382.1995	2.495e1
1382.2881	5.171e1
1382.7268	1.667e1
1383.1890	1.424e1
1384.2214	1.667e1
1385.5049	3.786e1
1385.8542	1.424e1
1387.2042	6.114e1
1388.1851	6.276e1
1388.2706	1.371e1
1389.2107	6.000e1
1390.1978	2.781e1
1391.2048	1.410e1
1396.2268	1.405e1
1397.2172	4.119e1
1398.2393	1.848e1
1399.2045	1.429e1
1400.6278	5.129e1
1400.9263	1.823e2
1401.1731	9.857e0
1401.2561	1.510e2
1401.3947	1.429e1
1401.5646	6.286e1
1401.6569	1.419e1
1401.9119	5.824e1
1402.2614	6.048e1
1403.2039	1.605e2
1404.1998	7.510e1
1404.3036	1.286e1
1405.1659	7.114e1
1407.9078	2.395e1
1408.5596	1.405e1
1408.9196	1.505e1
1414.2411	1.429e1
1419.7502	1.581e1
1419.8551	1.395e1
1420.2540	2.729e1
1425.9414	3.190e1
1426.9047	1.619e1
1427.2134	1.452e1
1427.7578	3.024e1
1428.2126	6.181e1
1428.3015	2.671e1
1429.2592	1.476e1
1430.3093	2.381e1
1433.5166	3.324e1
1433.5662	1.971e1
1434.2349	1.667e1
1435.2301	2.024e1
1436.2773	2.000e1
1440.6271	1.429e1
1442.3115	1.397e2
1443.2852	7.310e1
1444.3077	5.533e1
1444.4161	1.281e1
1448.2656	1.533e1
1450.6627	1.952e1
1452.3073	1.571e1
1453.3372	1.424e1
1453.7281	1.881e1
1458.2758	1.500e1
1459.3270	1.619e1
1460.3123	7.186e1
1461.2872	1.738e1
1462.3215	1.405e1
1465.3596	1.405e1
1467.2386	1.629e1
1468.3085	1.619e1
1482.6555	1.881e1
1483.1619	1.848e1
1488.2507	1.524e1
1489.2885	2.081e1
1491.6686	1.629e1
1495.2701	1.810e1
1497.2406	1.424e1
